title:johnathan_nback_1, start timestamp:1606529661.742189, stop timestamp:1606529721.166011, headset type:EPOCPLUS, headset serial:4A2C14BBFA, headset firmware:634, channels:151, sampling rate:eeg_128;mot_32;pm_0.1;pow_8, samples:7624      , version:2.0
Timestamp,EEG.Counter,EEG.Interpolated,EEG.AF3,EEG.F7,EEG.F3,EEG.FC5,EEG.T7,EEG.P7,EEG.O1,EEG.O2,EEG.P8,EEG.T8,EEG.FC6,EEG.F4,EEG.F8,EEG.AF4,EEG.RawCq,EEG.Battery,MarkerIndex,MarkerType,MarkerValueInt,EEG.MarkerHardware,CQ.AF3,CQ.F7,CQ.F3,CQ.FC5,CQ.T7,CQ.P7,CQ.O1,CQ.O2,CQ.P8,CQ.T8,CQ.FC6,CQ.F4,CQ.F8,CQ.AF4,CQ.Overall,MOT.CounterMems,MOT.InterpolatedMems,MOT.Q0,MOT.Q1,MOT.Q2,MOT.Q3,MOT.AccX,MOT.AccY,MOT.AccZ,MOT.MagX,MOT.MagY,MOT.MagZ,PM.Engagement.IsActive,PM.Engagement.Scaled,PM.Engagement.Raw,PM.Engagement.Min,PM.Engagement.Max,PM.Excitement.IsActive,PM.Excitement.Scaled,PM.Excitement.Raw,PM.Excitement.Min,PM.Excitement.Max,PM.LongTermExcitement,PM.Stress.IsActive,PM.Stress.Scaled,PM.Stress.Raw,PM.Stress.Min,PM.Stress.Max,PM.Relaxation.IsActive,PM.Relaxation.Scaled,PM.Relaxation.Raw,PM.Relaxation.Min,PM.Relaxation.Max,PM.Interest.IsActive,PM.Interest.Scaled,PM.Interest.Raw,PM.Interest.Min,PM.Interest.Max,PM.Focus.IsActive,PM.Focus.Scaled,PM.Focus.Raw,PM.Focus.Min,PM.Focus.Max,POW.AF3.Theta,POW.AF3.Alpha,POW.AF3.BetaL,POW.AF3.BetaH,POW.AF3.Gamma,POW.F7.Theta,POW.F7.Alpha,POW.F7.BetaL,POW.F7.BetaH,POW.F7.Gamma,POW.F3.Theta,POW.F3.Alpha,POW.F3.BetaL,POW.F3.BetaH,POW.F3.Gamma,POW.FC5.Theta,POW.FC5.Alpha,POW.FC5.BetaL,POW.FC5.BetaH,POW.FC5.Gamma,POW.T7.Theta,POW.T7.Alpha,POW.T7.BetaL,POW.T7.BetaH,POW.T7.Gamma,POW.P7.Theta,POW.P7.Alpha,POW.P7.BetaL,POW.P7.BetaH,POW.P7.Gamma,POW.O1.Theta,POW.O1.Alpha,POW.O1.BetaL,POW.O1.BetaH,POW.O1.Gamma,POW.O2.Theta,POW.O2.Alpha,POW.O2.BetaL,POW.O2.BetaH,POW.O2.Gamma,POW.P8.Theta,POW.P8.Alpha,POW.P8.BetaL,POW.P8.BetaH,POW.P8.Gamma,POW.T8.Theta,POW.T8.Alpha,POW.T8.BetaL,POW.T8.BetaH,POW.T8.Gamma,POW.FC6.Theta,POW.FC6.Alpha,POW.FC6.BetaL,POW.FC6.BetaH,POW.FC6.Gamma,POW.F4.Theta,POW.F4.Alpha,POW.F4.BetaL,POW.F4.BetaH,POW.F4.Gamma,POW.F8.Theta,POW.F8.Alpha,POW.F8.BetaL,POW.F8.BetaH,POW.F8.Gamma,POW.AF4.Theta,POW.AF4.Alpha,POW.AF4.BetaL,POW.AF4.BetaH,POW.AF4.Gamma
1606529661.742189,92.000000,0.000000,4204.230957,4191.794922,4218.717773,4218.974121,4228.974121,4217.948730,4209.102539,4199.102539,4227.948730,4230.897461,4224.615234,4232.948730,4218.846191,4201.153809,3483.000000,2.000000,,,,0.000000,4.000000,4.000000,4.000000,4.000000,4.000000,4.000000,4.000000,4.000000,4.000000,4.000000,4.000000,4.000000,4.000000,4.000000,100.000000,23.000000,0.000000,0.680305,-0.384155,-0.597229,-0.181458,0.986343,-0.276371,0.015137,-32.599373,-121.275658,13.159381,,,,,,,,,,,,,,,,,,,,,,,,,,,,,,,,8.454598,1.832398,0.760046,0.324993,0.241592,3.904577,0.800241,0.770649,0.285700,0.263131,2.647120,1.197169,0.465037,0.319954,0.171498,1.906899,0.460088,0.337783,0.152509,0.177402,1.156610,0.482228,0.901383,1.345224,0.464082,0.588519,0.657176,0.372359,0.247095,0.102783,0.759895,0.294724,0.484683,0.214450,0.144411,1.394832,0.844049,0.368503,0.320284,0.371875,1.840123,0.783889,0.578588,0.358189,0.344236,2.730959,0.962962,0.650339,1.034828,0.426193,2.656303,1.198231,0.347651,0.452641,0.207043,3.268924,0.894690,0.433114,0.509438,0.229225,5.439363,1.875316,1.128148,0.901302,0.582922,4.159035,2.161769,0.876149,0.564331,0.185956
1606529661.749885,93.000000,0.000000,4194.871582,4177.179688,4217.563965,4213.077148,4233.589844,4228.077148,4219.487305,4195.769043,4230.128418,4232.307617,4227.436035,4232.948730,4215.256348,4197.820313,3346.000000,2.000000,,,,0.000000,4.000000,4.000000,4.000000,4.000000,4.000000,4.000000,4.000000,4.000000,4.000000,4.000000,4.000000,4.000000,4.000000,4.000000,100.000000,,,,,,,,,,,,,,,,,,,,,,,,,,,,,,,,,,,,,,,,,,,,,,,,,,,,,,,,,,,,,,,,,,,,,,,,,,,,,,,,,,,,,,,,,,,,,,,,,,,,,,,,,,,,,,,,,
1606529661.757581,94.000000,0.000000,4179.358887,4167.436035,4213.333496,4202.820313,4228.846191,4227.563965,4212.307617,4200.384766,4229.102539,4223.205078,4219.743652,4219.230957,4207.692383,4182.948730,3606.000000,2.000000,,,,0.000000,4.000000,4.000000,4.000000,4.000000,4.000000,4.000000,4.000000,4.000000,4.000000,4.000000,4.000000,4.000000,4.000000,4.000000,100.000000,,,,,,,,,,,,,,,,,,,,,,,,,,,,,,,,,,,,,,,,,,,,,,,,,,,,,,,,,,,,,,,,,,,,,,,,,,,,,,,,,,,,,,,,,,,,,,,,,,,,,,,,,,,,,,,,,
1606529661.765177,95.000000,0.000000,4197.948730,4194.615234,4218.333496,4213.589844,4230.769043,4217.307617,4200.769043,4202.948730,4220.128418,4213.333496,4216.153809,4216.666504,4211.153809,4186.666504,3470.000000,2.000000,,,,0.000000,4.000000,4.000000,4.000000,4.000000,4.000000,4.000000,4.000000,4.000000,4.000000,4.000000,4.000000,4.000000,4.000000,4.000000,100.000000,,,,,,,,,,,,,,,,,,,,,,,,,,,,,,,,,,,,,,,,,,,,,,,,,,,,,,,,,,,,,,,,,,,,,,,,,,,,,,,,,,,,,,,,,,,,,,,,,,,,,,,,,,,,,,,,,
1606529661.772873,96.000000,0.000000,4236.538574,4222.563965,4238.974121,4232.563965,4234.487305,4227.051270,4204.487305,4200.641113,4215.256348,4217.051270,4222.948730,4238.974121,4219.102539,4219.358887,3483.000000,2.000000,,,,0.000000,4.000000,4.000000,4.000000,4.000000,4.000000,4.000000,4.000000,4.000000,4.000000,4.000000,4.000000,4.000000,4.000000,4.000000,100.000000,24.000000,0.000000,0.680017,-0.383911,-0.598083,-0.180237,0.977066,-0.312993,-0.013184,-33.047989,-121.574730,11.663997,,,,,,,,,,,,,,,,,,,,,,,,,,,,,,,,,,,,,,,,,,,,,,,,,,,,,,,,,,,,,,,,,,,,,,,,,,,,,,,,,,,,,,,,,,,,,,,,,,,,,
1606529661.780569,97.000000,0.000000,4248.717773,4215.256348,4248.333496,4224.871582,4215.769043,4234.230957,4208.974121,4202.436035,4218.333496,4221.538574,4221.922852,4250.512695,4217.563965,4237.692383,3346.000000,2.000000,,,,0.000000,4.000000,4.000000,4.000000,4.000000,4.000000,4.000000,4.000000,4.000000,4.000000,4.000000,4.000000,4.000000,4.000000,4.000000,100.000000,,,,,,,,,,,,,,,,,,,,,,,,,,,,,,,,,,,,,,,,,,,,,,,,,,,,,,,,,,,,,,,,,,,,,,,,,,,,,,,,,,,,,,,,,,,,,,,,,,,,,,,,,,,,,,,,,
1606529661.788265,98.000000,0.000000,4242.563965,4213.717773,4236.538574,4212.436035,4203.077148,4219.743652,4202.563965,4201.538574,4215.256348,4215.000000,4217.436035,4242.563965,4213.461426,4226.410156,3606.000000,2.000000,,,,0.000000,4.000000,4.000000,4.000000,4.000000,4.000000,4.000000,4.000000,4.000000,4.000000,4.000000,4.000000,4.000000,4.000000,4.000000,100.000000,,,,,,,,,,,,,,,,,,,,,,,,,,,,,,,,,,,,,,,,,,,,,,,,,,,,,,,,,,,,,,,,,,,,,,,,,,,,,,,,,,,,,,,,,,,,,,,,,,,,,,,,,,,,,,,,,
1606529661.795861,99.000000,0.000000,4250.384766,4237.051270,4230.512695,4221.922852,4223.333496,4219.102539,4203.205078,4208.333496,4216.153809,4217.179688,4226.025879,4243.205078,4219.358887,4222.307617,3470.000000,2.000000,,,,0.000000,4.000000,4.000000,4.000000,4.000000,4.000000,4.000000,4.000000,4.000000,4.000000,4.000000,4.000000,4.000000,4.000000,4.000000,100.000000,,,,,,,,,,,,,,,,,,,,,,,,,,,,,,,,,,,,,,,,,,,,,,,,,,,,,,,,,,,,,,,,,,,,,,,,,,,,,,,,,,,,,,,,,,,,,,,,,,,,,,,,,,,,,,,,,
1606529661.803557,100.000000,0.000000,4253.461426,4238.205078,4234.358887,4225.897461,4229.230957,4235.128418,4210.256348,4216.153809,4221.922852,4217.948730,4225.641113,4242.051270,4216.538574,4225.384766,3483.000000,2.000000,,,,0.000000,4.000000,4.000000,4.000000,4.000000,4.000000,4.000000,4.000000,4.000000,4.000000,4.000000,4.000000,4.000000,4.000000,4.000000,100.000000,25.000000,0.000000,0.679083,-0.385559,-0.598633,-0.178406,0.967300,-0.328618,-0.022461,-31.702145,-119.182114,12.262150,,,,,,,,,,,,,,,,,,,,,,,,,,,,,,,,,,,,,,,,,,,,,,,,,,,,,,,,,,,,,,,,,,,,,,,,,,,,,,,,,,,,,,,,,,,,,,,,,,,,,
1606529661.811452,101.000000,0.000000,4239.871582,4212.820313,4231.794922,4215.256348,4206.153809,4237.563965,4213.205078,4208.461426,4216.794922,4206.922852,4213.333496,4231.153809,4201.410156,4217.307617,3346.000000,2.000000,,,,0.000000,4.000000,4.000000,4.000000,4.000000,4.000000,4.000000,4.000000,4.000000,4.000000,4.000000,4.000000,4.000000,4.000000,4.000000,100.000000,,,,,,,,,,,,,,,,,,,,,,,,,,,,,,,,,,,,,,,,,,,,,,,,,,,,,,,,,,,,,,,,,,,,,,,,,,,,,,,,,,,,,,,,,,,,,,,,,,,,,,,,,,,,,,,,,
1606529661.819348,102.000000,0.000000,4227.820313,4198.205078,4227.820313,4208.846191,4204.743652,4229.230957,4216.666504,4198.461426,4211.794922,4207.692383,4213.461426,4231.025879,4196.410156,4208.846191,3606.000000,2.000000,,,,0.000000,4.000000,4.000000,4.000000,4.000000,4.000000,4.000000,4.000000,4.000000,4.000000,4.000000,4.000000,4.000000,4.000000,4.000000,100.000000,,,,,,,,,,,,,,,,,,,,,,,,,,,,,,,,,,,,,,,,,,,,,,,,,,,,,,,,,,,,,,,,,,,,,,,,,,,,,,,,,,,,,,,,,,,,,,,,,,,,,,,,,,,,,,,,,
1606529661.827144,103.000000,0.000000,4225.384766,4201.794922,4227.948730,4211.282227,4217.563965,4222.051270,4213.589844,4201.794922,4216.282227,4219.487305,4213.974121,4231.794922,4200.384766,4209.871582,3470.000000,2.000000,,,,0.000000,4.000000,4.000000,4.000000,4.000000,4.000000,4.000000,4.000000,4.000000,4.000000,4.000000,4.000000,4.000000,4.000000,4.000000,100.000000,,,,,,,,,,,,,,,,,,,,,,,,,,,,,,,,,,,,,,,,,,,,,,,,,,,,,,,,,,,,,,,,,,,,,,,,,,,,,,,,,,,,,,,,,,,,,,,,,,,,,,,,,,,,,,,,,
1606529661.834840,104.000000,0.000000,4224.871582,4204.743652,4229.102539,4212.948730,4216.666504,4223.333496,4207.692383,4210.128418,4218.717773,4213.846191,4209.102539,4226.794922,4195.897461,4213.717773,3483.000000,2.000000,,,,0.000000,4.000000,4.000000,4.000000,4.000000,4.000000,4.000000,4.000000,4.000000,4.000000,4.000000,4.000000,4.000000,4.000000,4.000000,100.000000,26.000000,0.000000,0.677292,-0.390747,-0.597351,-0.178223,0.943862,-0.359380,-0.042481,-33.646145,-119.481194,12.561227,,,,,,,,,,,,,,,,,,,,,,,,,,,,,,,,,,,,,,,,,,,,,,,,,,,,,,,,,,,,,,,,,,,,,,,,,,,,,,,,,,,,,,,,,,,,,,,,,,,,,
1606529661.842536,105.000000,0.000000,4217.436035,4196.410156,4225.512695,4208.333496,4217.436035,4235.897461,4213.589844,4211.794922,4217.307617,4203.717773,4212.563965,4229.615234,4193.333496,4217.948730,3346.000000,2.000000,,,,0.000000,4.000000,4.000000,4.000000,4.000000,4.000000,4.000000,4.000000,4.000000,4.000000,4.000000,4.000000,4.000000,4.000000,4.000000,100.000000,,,,,,,,,,,,,,,,,,,,,,,,,,,,,,,,,,,,,,,,,,,,,,,,,,,,,,,,,,,,,,,,,,,,,,,,,,,,,,,,,,,,,,,,,,,,,,,,,,,,,,,,,,,,,,,,,
1606529661.850431,106.000000,0.000000,4212.563965,4190.641113,4220.384766,4203.974121,4216.538574,4233.461426,4216.282227,4206.538574,4218.461426,4206.538574,4210.769043,4232.436035,4199.102539,4217.051270,3606.000000,2.000000,,,,0.000000,4.000000,4.000000,4.000000,4.000000,4.000000,4.000000,4.000000,4.000000,4.000000,4.000000,4.000000,4.000000,4.000000,4.000000,100.000000,,,,,,,,,,,,,,,,,,,,,,,,,,,,,,,,,,,,,,,,,,,,,,,,,,,,,,,,,,,,,,,,,,,,,,,,,,,,,,,,,,,,,,,,,,,,,,,,,,,,,,,,,,,,,,,,,
1606529661.858227,107.000000,0.000000,4217.436035,4197.692383,4223.974121,4208.205078,4214.871582,4222.948730,4210.897461,4202.051270,4216.025879,4207.307617,4202.692383,4225.000000,4198.205078,4213.077148,3470.000000,2.000000,,,,0.000000,4.000000,4.000000,4.000000,4.000000,4.000000,4.000000,4.000000,4.000000,4.000000,4.000000,4.000000,4.000000,4.000000,4.000000,100.000000,,,,,,,,,,,,,,,,,,,,,,,,,,,,,,,,,,,,,,,,,,,,,,,,,,,,,,,,,,,,,,,,,,,,,,,,,,,,,,,,,,,,,,,,,,,,,,,,,,,,,,,,,,,,,,,,,
1606529661.865923,108.000000,0.000000,4219.230957,4200.256348,4227.051270,4210.000000,4215.512695,4227.179688,4213.461426,4210.384766,4213.846191,4208.205078,4205.641113,4219.487305,4195.384766,4212.179688,3483.000000,2.000000,,,,0.000000,4.000000,4.000000,4.000000,4.000000,4.000000,4.000000,4.000000,4.000000,4.000000,4.000000,4.000000,4.000000,4.000000,4.000000,100.000000,27.000000,0.000000,0.674926,-0.398621,-0.594177,-0.180359,0.927260,-0.381842,-0.054200,-33.646145,-119.929810,12.561227,,,,,,,,,,,,,,,,,,,,,,,,,,,,,,,,11.637567,1.480923,0.513743,0.332020,0.241553,5.406490,0.602490,0.611490,0.325326,0.226058,3.068051,1.169266,0.393262,0.335339,0.171669,2.241367,0.447026,0.353921,0.164654,0.155498,1.546981,0.407764,0.705736,1.409572,0.492617,0.909947,0.549304,0.332272,0.219646,0.105376,0.732571,0.242184,0.425419,0.225723,0.140836,1.692977,0.979298,0.410927,0.348978,0.308439,2.294170,0.786843,0.579201,0.342607,0.281890,2.946298,0.964965,0.634545,0.942601,0.402553,2.734732,1.040592,0.298366,0.436465,0.217219,3.514453,0.767271,0.341354,0.541379,0.220476,5.970731,1.244300,1.037776,0.839460,0.610288,4.893533,1.701368,0.660042,0.614489,0.199583
1606529661.873619,109.000000,0.000000,4204.230957,4187.179688,4217.948730,4201.410156,4198.717773,4227.179688,4218.077148,4219.230957,4215.000000,4212.948730,4207.051270,4218.589844,4196.922852,4205.000000,3346.000000,2.000000,,,,0.000000,4.000000,4.000000,4.000000,4.000000,4.000000,4.000000,4.000000,4.000000,4.000000,4.000000,4.000000,4.000000,4.000000,4.000000,100.000000,,,,,,,,,,,,,,,,,,,,,,,,,,,,,,,,,,,,,,,,,,,,,,,,,,,,,,,,,,,,,,,,,,,,,,,,,,,,,,,,,,,,,,,,,,,,,,,,,,,,,,,,,,,,,,,,,
1606529661.881315,110.000000,0.000000,4195.641113,4179.743652,4211.794922,4199.743652,4183.461426,4216.794922,4215.512695,4215.769043,4215.897461,4213.333496,4202.179688,4215.512695,4199.358887,4199.102539,3606.000000,2.000000,,,,0.000000,4.000000,4.000000,4.000000,4.000000,4.000000,4.000000,4.000000,4.000000,4.000000,4.000000,4.000000,4.000000,4.000000,4.000000,100.000000,,,,,,,,,,,,,,,,,,,,,,,,,,,,,,,,,,,,,,,,,,,,,,,,,,,,,,,,,,,,,,,,,,,,,,,,,,,,,,,,,,,,,,,,,,,,,,,,,,,,,,,,,,,,,,,,,
1606529661.889111,111.000000,0.000000,4209.358887,4189.102539,4215.641113,4202.948730,4193.589844,4215.256348,4215.256348,4216.153809,4220.897461,4212.563965,4209.358887,4216.282227,4199.871582,4206.666504,3470.000000,2.000000,,,,0.000000,4.000000,4.000000,4.000000,4.000000,4.000000,4.000000,4.000000,4.000000,4.000000,4.000000,4.000000,4.000000,4.000000,4.000000,100.000000,,,,,,,,,,,,,,,,,,,,,,,,,,,,,,,,,,,,,,,,,,,,,,,,,,,,,,,,,,,,,,,,,,,,,,,,,,,,,,,,,,,,,,,,,,,,,,,,,,,,,,,,,,,,,,,,,
1606529661.896807,112.000000,0.000000,4222.436035,4199.358887,4218.974121,4204.230957,4206.794922,4220.256348,4214.102539,4219.230957,4226.794922,4215.128418,4220.897461,4225.256348,4203.333496,4218.846191,3483.000000,2.000000,,,,0.000000,4.000000,4.000000,4.000000,4.000000,4.000000,4.000000,4.000000,4.000000,4.000000,4.000000,4.000000,4.000000,4.000000,4.000000,100.000000,28.000000,0.000000,0.672167,-0.409607,-0.588013,-0.186157,0.936049,-0.401373,-0.054200,-31.403067,-120.527962,11.963073,,,,,,,,,,,,,,,,,,,,,,,,,,,,,,,,,,,,,,,,,,,,,,,,,,,,,,,,,,,,,,,,,,,,,,,,,,,,,,,,,,,,,,,,,,,,,,,,,,,,,
1606529661.904503,113.000000,0.000000,4222.563965,4201.410156,4223.461426,4209.230957,4206.025879,4218.205078,4210.769043,4218.717773,4229.743652,4217.563965,4221.282227,4228.205078,4206.025879,4218.205078,3346.000000,2.000000,,,,0.000000,4.000000,4.000000,4.000000,4.000000,4.000000,4.000000,4.000000,4.000000,4.000000,4.000000,4.000000,4.000000,4.000000,4.000000,100.000000,,,,,,,,,,,,,,,,,,,,,,,,,,,,,,,,,,,,,,,,,,,,,,,,,,,,,,,,,,,,,,,,,,,,,,,,,,,,,,,,,,,,,,,,,,,,,,,,,,,,,,,,,,,,,,,,,
1606529661.912199,114.000000,0.000000,4222.436035,4199.743652,4230.512695,4214.102539,4202.948730,4214.230957,4211.025879,4219.230957,4233.333496,4220.897461,4218.974121,4228.333496,4203.589844,4214.743652,3606.000000,2.000000,,,,0.000000,4.000000,4.000000,4.000000,4.000000,4.000000,4.000000,4.000000,4.000000,4.000000,4.000000,4.000000,4.000000,4.000000,4.000000,100.000000,,,,,,,,,,,,,,,,,,,,,,,,,,,,,,,,,,,,,,,,,,,,,,,,,,,,,,,,,,,,,,,,,,,,,,,,,,,,,,,,,,,,,,,,,,,,,,,,,,,,,,,,,,,,,,,,,
1606529661.919795,115.000000,0.000000,4226.922852,4205.128418,4232.820313,4217.051270,4198.589844,4214.743652,4214.743652,4215.769043,4231.153809,4224.487305,4225.256348,4237.051270,4207.692383,4226.922852,3470.000000,2.000000,,,,0.000000,4.000000,4.000000,4.000000,4.000000,4.000000,4.000000,4.000000,4.000000,4.000000,4.000000,4.000000,4.000000,4.000000,4.000000,100.000000,,,,,,,,,,,,,,,,,,,,,,,,,,,,,,,,,,,,,,,,,,,,,,,,,,,,,,,,,,,,,,,,,,,,,,,,,,,,,,,,,,,,,,,,,,,,,,,,,,,,,,,,,,,,,,,,,
1606529661.927491,116.000000,0.000000,4234.871582,4216.794922,4234.102539,4221.922852,4199.487305,4219.487305,4214.358887,4206.282227,4222.692383,4220.512695,4230.641113,4241.282227,4214.358887,4233.846191,3483.000000,2.000000,,,,0.000000,4.000000,4.000000,4.000000,4.000000,4.000000,4.000000,4.000000,4.000000,4.000000,4.000000,4.000000,4.000000,4.000000,4.000000,100.000000,29.000000,0.000000,0.669151,-0.422180,-0.579529,-0.195313,0.922866,-0.395026,-0.054688,-32.300297,-122.023346,12.710765,,,,,,,,,,,,,,,,,,,,,,,,,,,,,,,,,,,,,,,,,,,,,,,,,,,,,,,,,,,,,,,,,,,,,,,,,,,,,,,,,,,,,,,,,,,,,,,,,,,,,
1606529661.935186,117.000000,0.000000,4235.641113,4215.128418,4234.358887,4223.461426,4207.179688,4217.820313,4205.512695,4202.436035,4217.436035,4213.846191,4225.000000,4233.717773,4208.717773,4223.589844,3346.000000,2.000000,,,,0.000000,4.000000,4.000000,4.000000,4.000000,4.000000,4.000000,4.000000,4.000000,4.000000,4.000000,4.000000,4.000000,4.000000,4.000000,100.000000,,,,,,,,,,,,,,,,,,,,,,,,,,,,,,,,,,,,,,,,,,,,,,,,,,,,,,,,,,,,,,,,,,,,,,,,,,,,,,,,,,,,,,,,,,,,,,,,,,,,,,,,,,,,,,,,,
1606529661.942882,118.000000,0.000000,4223.461426,4203.333496,4231.922852,4218.974121,4202.307617,4206.282227,4198.589844,4198.589844,4211.153809,4203.974121,4215.128418,4228.461426,4198.461426,4215.256348,3606.000000,2.000000,,,,0.000000,4.000000,4.000000,4.000000,4.000000,4.000000,4.000000,4.000000,4.000000,4.000000,4.000000,4.000000,4.000000,4.000000,4.000000,100.000000,,,,,,,,,,,,,,,,,,,,,,,,,,,,,,,,,,,,,,,,,,,,,,,,,,,,,,,,,,,,,,,,,,,,,,,,,,,,,,,,,,,,,,,,,,,,,,,,,,,,,,,,,,,,,,,,,
1606529661.950478,119.000000,0.000000,4221.410156,4200.384766,4229.871582,4218.077148,4197.307617,4204.102539,4202.948730,4198.077148,4207.692383,4199.487305,4213.077148,4229.871582,4196.666504,4215.000000,3470.000000,2.000000,,,,0.000000,4.000000,4.000000,4.000000,4.000000,4.000000,4.000000,4.000000,4.000000,4.000000,4.000000,4.000000,4.000000,4.000000,4.000000,100.000000,,,,,,,,,,,,,,,,,,,,,,,,,,,,,,,,,,,,,,,,,,,,,,,,,,,,,,,,,,,,,,,,,,,,,,,,,,,,,,,,,,,,,,,,,,,,,,,,,,,,,,,,,,,,,,,,,
1606529661.958174,120.000000,0.000000,4228.974121,4204.102539,4227.436035,4219.871582,4197.436035,4206.666504,4205.897461,4209.871582,4215.769043,4210.512695,4218.717773,4232.948730,4200.256348,4217.436035,3483.000000,2.000000,,,,0.000000,4.000000,4.000000,4.000000,4.000000,4.000000,4.000000,4.000000,4.000000,4.000000,4.000000,4.000000,4.000000,4.000000,4.000000,100.000000,30.000000,0.000000,0.666440,-0.433533,-0.570679,-0.205505,0.943374,-0.397955,-0.036622,-33.646145,-120.677498,11.364920,,,,,,,,,,,,,,,,,,,,,,,,,,,,,,,,,,,,,,,,,,,,,,,,,,,,,,,,,,,,,,,,,,,,,,,,,,,,,,,,,,,,,,,,,,,,,,,,,,,,,
1606529661.965870,121.000000,0.000000,4224.230957,4202.692383,4221.922852,4214.615234,4187.948730,4200.641113,4198.589844,4210.641113,4219.615234,4214.871582,4219.743652,4232.948730,4199.871582,4218.461426,3346.000000,2.000000,,,,0.000000,4.000000,4.000000,4.000000,4.000000,4.000000,4.000000,4.000000,4.000000,4.000000,4.000000,4.000000,4.000000,4.000000,4.000000,100.000000,,,,,,,,,,,,,,,,,,,,,,,,,,,,,,,,,,,,,,,,,,,,,,,,,,,,,,,,,,,,,,,,,,,,,,,,,,,,,,,,,,,,,,,,,,,,,,,,,,,,,,,,,,,,,,,,,
1606529661.973566,122.000000,0.000000,4216.410156,4199.358887,4218.717773,4210.256348,4187.051270,4199.102539,4199.743652,4200.128418,4212.820313,4201.922852,4214.871582,4229.615234,4193.846191,4217.179688,3606.000000,2.000000,,,,0.000000,4.000000,4.000000,4.000000,4.000000,4.000000,4.000000,4.000000,4.000000,4.000000,4.000000,4.000000,4.000000,4.000000,4.000000,100.000000,,,,,,,,,,,,,,,,,,,,,,,,,,,,,,,,,,,,,,,,,,,,,,,,,,,,,,,,,,,,,,,,,,,,,,,,,,,,,,,,,,,,,,,,,,,,,,,,,,,,,,,,,,,,,,,,,
1606529661.981162,123.000000,0.000000,4217.948730,4197.948730,4218.974121,4215.128418,4190.256348,4204.487305,4205.128418,4203.205078,4206.794922,4192.051270,4210.256348,4227.051270,4186.666504,4213.205078,3470.000000,2.000000,,,,0.000000,4.000000,4.000000,4.000000,4.000000,4.000000,4.000000,4.000000,4.000000,4.000000,4.000000,4.000000,4.000000,4.000000,4.000000,100.000000,,,,,,,,,,,,,,,,,,,,,,,,,,,,,,,,,,,,,,,,,,,,,,,,,,,,,,,,,,,,,,,,,,,,,,,,,,,,,,,,,,,,,,,,,,,,,,,,,,,,,,,,,,,,,,,,,
1606529661.988858,124.000000,0.000000,4217.692383,4198.461426,4218.846191,4218.589844,4174.871582,4205.256348,4201.025879,4200.000000,4197.820313,4187.820313,4202.820313,4222.820313,4182.307617,4205.897461,3483.000000,2.000000,,,,0.000000,4.000000,4.000000,4.000000,4.000000,4.000000,4.000000,4.000000,4.000000,4.000000,4.000000,4.000000,4.000000,4.000000,4.000000,100.000000,31.000000,0.000000,0.664479,-0.441528,-0.563721,-0.213867,0.962417,-0.384771,-0.024414,-33.047989,-120.527962,12.710765,,,,,,,,,,,,,,,,,,,,,,,,,,,,,,,,14.647474,1.449959,0.343722,0.348644,0.254821,6.596393,0.492286,0.503358,0.376503,0.203046,3.282480,1.164832,0.325801,0.345911,0.168653,2.414423,0.476991,0.383353,0.170543,0.143048,1.912318,0.366764,0.575433,1.503515,0.532958,1.303917,0.458265,0.282213,0.198584,0.110023,0.699415,0.212320,0.387828,0.223907,0.138569,2.023516,1.159168,0.454509,0.379293,0.251722,2.653192,0.715057,0.550965,0.323770,0.229078,2.928842,0.894031,0.594405,0.823300,0.389558,2.580579,0.964672,0.280337,0.418476,0.230924,3.576582,0.759014,0.267892,0.551573,0.203665,6.179373,0.877795,1.055379,0.757008,0.619512,5.434734,1.509805,0.499090,0.665273,0.217589
1606529661.996754,125.000000,0.000000,4211.794922,4199.358887,4222.179688,4217.692383,4173.717773,4206.282227,4199.871582,4193.974121,4195.256348,4180.897461,4199.615234,4218.461426,4178.717773,4200.128418,3346.000000,2.000000,,,,0.000000,4.000000,4.000000,4.000000,4.000000,4.000000,4.000000,4.000000,4.000000,4.000000,4.000000,4.000000,4.000000,4.000000,4.000000,100.000000,,,,,,,,,,,,,,,,,,,,,,,,,,,,,,,,,,,,,,,,,,,,,,,,,,,,,,,,,,,,,,,,,,,,,,,,,,,,,,,,,,,,,,,,,,,,,,,,,,,,,,,,,,,,,,,,,
1606529662.004649,126.000000,0.000000,4216.153809,4200.769043,4228.974121,4222.179688,4201.922852,4208.333496,4204.487305,4209.487305,4210.769043,4188.205078,4209.358887,4222.563965,4182.692383,4205.641113,3606.000000,2.000000,,,,0.000000,4.000000,4.000000,4.000000,4.000000,4.000000,4.000000,4.000000,4.000000,4.000000,4.000000,4.000000,4.000000,4.000000,4.000000,100.000000,,,,,,,,,,,,,,,,,,,,,,,,,,,,,,,,,,,,,,,,,,,,,,,,,,,,,,,,,,,,,,,,,,,,,,,,,,,,,,,,,,,,,,,,,,,,,,,,,,,,,,,,,,,,,,,,,
1606529662.012645,127.000000,0.000000,4220.641113,4203.205078,4232.436035,4231.282227,4204.230957,4204.358887,4202.051270,4213.846191,4216.666504,4201.794922,4217.948730,4230.128418,4192.179688,4215.000000,50.000000,2.000000,,,,0.000000,4.000000,4.000000,4.000000,4.000000,4.000000,4.000000,4.000000,4.000000,4.000000,4.000000,4.000000,4.000000,4.000000,4.000000,100.000000,,,,,,,,,,,,,,,,,,,,,,,,,,,,,,,,,,,,,,,,,,,,,,,,,,,,,,,,,,,,,,,,,,,,,,,,,,,,,,,,,,,,,,,,,,,,,,,,,,,,,,,,,,,,,,,,,
1606529662.020541,0.000000,0.000000,4215.384766,4199.743652,4230.256348,4228.717773,4181.538574,4203.461426,4201.538574,4202.179688,4203.461426,4194.102539,4215.384766,4227.948730,4188.846191,4210.897461,3453.000000,2.000000,,,,0.000000,4.000000,4.000000,4.000000,4.000000,4.000000,4.000000,4.000000,4.000000,4.000000,4.000000,4.000000,4.000000,4.000000,4.000000,100.000000,0.000000,0.000000,0.663895,-0.443909,-0.561462,-0.216675,0.960464,-0.371099,-0.009766,-32.300297,-121.574730,11.663997,,,,,,,,,,,,,,,,,,,,,,,,,,,,,,,,,,,,,,,,,,,,,,,,,,,,,,,,,,,,,,,,,,,,,,,,,,,,,,,,,,,,,,,,,,,,,,,,,,,,,
1606529662.028437,1.000000,0.000000,4215.769043,4198.333496,4222.692383,4217.820313,4180.256348,4202.563965,4209.871582,4208.077148,4197.948730,4182.436035,4209.615234,4221.922852,4185.128418,4203.974121,3467.000000,2.000000,,,,0.000000,4.000000,4.000000,4.000000,4.000000,4.000000,4.000000,4.000000,4.000000,4.000000,4.000000,4.000000,4.000000,4.000000,4.000000,100.000000,,,,,,,,,,,,,,,,,,,,,,,,,,,,,,,,,,,,,,,,,,,,,,,,,,,,,,,,,,,,,,,,,,,,,,,,,,,,,,,,,,,,,,,,,,,,,,,,,,,,,,,,,,,,,,,,,
1606529662.036433,2.000000,0.000000,4221.410156,4202.692383,4214.230957,4215.000000,4190.128418,4198.589844,4209.358887,4213.717773,4202.051270,4186.538574,4204.615234,4222.051270,4191.538574,4203.589844,3577.000000,2.000000,,,,0.000000,4.000000,4.000000,4.000000,4.000000,4.000000,4.000000,4.000000,4.000000,4.000000,4.000000,4.000000,4.000000,4.000000,4.000000,100.000000,,,,,,,,,,,,,,,,,,,,,,,,,,,,,,,,,,,,,,,,,,,,,,,,,,,,,,,,,,,,,,,,,,,,,,,,,,,,,,,,,,,,,,,,,,,,,,,,,,,,,,,,,,,,,,,,,
1606529662.044329,3.000000,0.000000,4209.487305,4188.461426,4211.025879,4213.717773,4186.153809,4203.205078,4200.769043,4199.358887,4200.384766,4190.512695,4203.333496,4219.487305,4182.820313,4199.102539,3568.000000,2.000000,,,,0.000000,4.000000,4.000000,4.000000,4.000000,4.000000,4.000000,4.000000,4.000000,4.000000,4.000000,4.000000,4.000000,4.000000,4.000000,100.000000,,,,,,,,,,,,,,,,,,,,,,,,,,,,,,,,,,,,,,,,,,,,,,,,,,,,,,,,,,,,,,,,,,,,,,,,,,,,,,,,,,,,,,,,,,,,,,,,,,,,,,,,,,,,,,,,,
1606529662.052225,4.000000,0.000000,4201.666504,4180.897461,4210.897461,4210.256348,4180.128418,4205.512695,4197.692383,4185.128418,4197.179688,4186.794922,4205.769043,4217.179688,4173.846191,4196.410156,3666.000000,2.000000,,,,0.000000,4.000000,4.000000,4.000000,4.000000,4.000000,4.000000,4.000000,4.000000,4.000000,4.000000,4.000000,4.000000,4.000000,4.000000,100.000000,1.000000,0.000000,0.663552,-0.445862,-0.559082,-0.219849,0.967300,-0.361334,-0.004395,-33.496605,-119.780273,12.411689,,,,,,,,,,,,,,,,,,,,,,,,,,,,,,,,,,,,,,,,,,,,,,,,,,,,,,,,,,,,,,,,,,,,,,,,,,,,,,,,,,,,,,,,,,,,,,,,,,,,,
1606529662.060221,5.000000,0.000000,4224.487305,4211.794922,4213.717773,4220.256348,4188.717773,4197.179688,4198.717773,4182.436035,4196.282227,4184.358887,4209.487305,4225.897461,4191.538574,4203.461426,3246.000000,2.000000,,,,0.000000,4.000000,4.000000,4.000000,4.000000,4.000000,4.000000,4.000000,4.000000,4.000000,4.000000,4.000000,4.000000,4.000000,4.000000,100.000000,,,,,,,,,,,,,,,,,,,,,,,,,,,,,,,,,,,,,,,,,,,,,,,,,,,,,,,,,,,,,,,,,,,,,,,,,,,,,,,,,,,,,,,,,,,,,,,,,,,,,,,,,,,,,,,,,
1606529662.068117,6.000000,0.000000,4242.563965,4233.205078,4219.358887,4230.128418,4198.846191,4197.563965,4197.307617,4190.000000,4195.641113,4185.897461,4216.153809,4235.128418,4206.922852,4207.820313,2647.000000,2.000000,,,,0.000000,4.000000,4.000000,4.000000,4.000000,4.000000,4.000000,4.000000,4.000000,4.000000,4.000000,4.000000,4.000000,4.000000,4.000000,100.000000,,,,,,,,,,,,,,,,,,,,,,,,,,,,,,,,,,,,,,,,,,,,,,,,,,,,,,,,,,,,,,,,,,,,,,,,,,,,,,,,,,,,,,,,,,,,,,,,,,,,,,,,,,,,,,,,,
1606529662.076013,7.000000,0.000000,4231.282227,4215.256348,4218.077148,4220.512695,4192.051270,4197.307617,4190.256348,4199.102539,4199.230957,4191.922852,4217.948730,4233.205078,4200.384766,4202.820313,3009.000000,2.000000,,,,0.000000,4.000000,4.000000,4.000000,4.000000,4.000000,4.000000,4.000000,4.000000,4.000000,4.000000,4.000000,4.000000,4.000000,4.000000,100.000000,,,,,,,,,,,,,,,,,,,,,,,,,,,,,,,,,,,,,,,,,,,,,,,,,,,,,,,,,,,,,,,,,,,,,,,,,,,,,,,,,,,,,,,,,,,,,,,,,,,,,,,,,,,,,,,,,
1606529662.084009,8.000000,0.000000,4221.153809,4205.000000,4215.256348,4213.461426,4182.307617,4188.205078,4186.794922,4198.461426,4203.333496,4203.974121,4214.871582,4230.897461,4200.256348,4201.666504,3223.000000,2.000000,,,,0.000000,4.000000,4.000000,4.000000,4.000000,4.000000,4.000000,4.000000,4.000000,4.000000,4.000000,4.000000,4.000000,4.000000,4.000000,100.000000,2.000000,0.000000,0.663895,-0.445557,-0.558533,-0.220825,0.968765,-0.361334,-0.009277,-32.449837,-120.228882,11.813535,,,,,,,,,,,,,,,,,,,,,,,,,,,,,,,,,,,,,,,,,,,,,,,,,,,,,,,,,,,,,,,,,,,,,,,,,,,,,,,,,,,,,,,,,,,,,,,,,,,,,
1606529662.091904,9.000000,0.000000,4219.487305,4211.410156,4217.948730,4220.256348,4181.025879,4188.846191,4191.153809,4199.487305,4203.717773,4206.922852,4218.846191,4232.948730,4202.563965,4205.256348,3621.000000,2.000000,,,,0.000000,4.000000,4.000000,4.000000,4.000000,4.000000,4.000000,4.000000,4.000000,4.000000,4.000000,4.000000,4.000000,4.000000,4.000000,100.000000,,,,,,,,,,,,,,,,,,,,,,,,,,,,,,,,,,,,,,,,,,,,,,,,,,,,,,,,,,,,,,,,,,,,,,,,,,,,,,,,,,,,,,,,,,,,,,,,,,,,,,,,,,,,,,,,,
1606529662.099800,10.000000,0.000000,4217.436035,4209.487305,4216.794922,4220.384766,4184.743652,4190.897461,4191.282227,4202.051270,4199.871582,4193.205078,4216.153809,4228.205078,4189.358887,4200.897461,3601.000000,2.000000,,,,0.000000,4.000000,4.000000,4.000000,4.000000,4.000000,4.000000,4.000000,4.000000,4.000000,4.000000,4.000000,4.000000,4.000000,4.000000,100.000000,,,,,,,,,,,,,,,,,,,,,,,,,,,,,,,,,,,,,,,,,,,,,,,,,,,,,,,,,,,,,,,,,,,,,,,,,,,,,,,,,,,,,,,,,,,,,,,,,,,,,,,,,,,,,,,,,
1606529662.107696,11.000000,0.000000,4222.948730,4212.820313,4213.974121,4216.922852,4192.179688,4186.794922,4192.692383,4199.358887,4199.487305,4181.410156,4204.102539,4225.769043,4182.948730,4198.974121,3466.000000,2.000000,,,,0.000000,4.000000,4.000000,4.000000,4.000000,4.000000,4.000000,4.000000,4.000000,4.000000,4.000000,4.000000,4.000000,4.000000,4.000000,100.000000,,,,,,,,,,,,,,,,,,,,,,,,,,,,,,,,,,,,,,,,,,,,,,,,,,,,,,,,,,,,,,,,,,,,,,,,,,,,,,,,,,,,,,,,,,,,,,,,,,,,,,,,,,,,,,,,,
1606529662.115592,12.000000,0.000000,4230.512695,4218.589844,4217.820313,4220.512695,4193.461426,4192.820313,4204.615234,4207.692383,4209.487305,4188.589844,4210.000000,4231.410156,4193.846191,4208.205078,3478.000000,2.000000,,,,0.000000,4.000000,4.000000,4.000000,4.000000,4.000000,4.000000,4.000000,4.000000,4.000000,4.000000,4.000000,4.000000,4.000000,4.000000,100.000000,3.000000,0.000000,0.664021,-0.445862,-0.557800,-0.221680,0.958999,-0.355474,-0.014160,-34.244297,-121.275658,13.458457,,,,,,,,,,,,,,,,,,,,,,,,,,,,,,,,16.583998,1.598266,0.272376,0.387364,0.275448,7.411192,0.451407,0.473953,0.429509,0.202621,3.235763,1.151253,0.271028,0.356665,0.164485,2.383550,0.520611,0.410871,0.169126,0.146025,2.190278,0.346642,0.520270,1.578195,0.582211,1.683973,0.393592,0.232737,0.184461,0.117853,0.671852,0.204607,0.361642,0.211203,0.139386,2.350744,1.377171,0.484057,0.392886,0.209628,2.890816,0.609038,0.507002,0.308115,0.193580,2.695108,0.773595,0.549303,0.721306,0.385529,2.229879,0.955246,0.283870,0.402119,0.242152,3.420869,0.845354,0.216421,0.545055,0.185382,5.926739,0.730864,1.136786,0.676112,0.602811,5.586326,1.527179,0.408677,0.710635,0.239832
1606529662.123588,13.000000,0.000000,4235.641113,4214.871582,4220.000000,4222.820313,4185.641113,4195.769043,4200.128418,4208.846191,4212.179688,4203.846191,4223.717773,4235.256348,4202.948730,4212.179688,3346.000000,2.000000,,,,0.000000,4.000000,4.000000,4.000000,4.000000,4.000000,4.000000,4.000000,4.000000,4.000000,4.000000,4.000000,4.000000,4.000000,4.000000,100.000000,,,,,,,,,,,,,,,,,,,,,,,,,,,,,,,,,,,,,,,,,,,,,,,,,,,,,,,,,,,,,,,,,,,,,,,,,,,,,,,,,,,,,,,,,,,,,,,,,,,,,,,,,,,,,,,,,
1606529662.131484,14.000000,0.000000,4232.820313,4212.948730,4215.128418,4220.641113,4180.769043,4181.410156,4182.307617,4187.179688,4196.025879,4198.589844,4212.948730,4232.948730,4195.641113,4205.641113,3601.000000,2.000000,,,,0.000000,4.000000,4.000000,4.000000,4.000000,4.000000,4.000000,4.000000,4.000000,4.000000,4.000000,4.000000,4.000000,4.000000,4.000000,100.000000,,,,,,,,,,,,,,,,,,,,,,,,,,,,,,,,,,,,,,,,,,,,,,,,,,,,,,,,,,,,,,,,,,,,,,,,,,,,,,,,,,,,,,,,,,,,,,,,,,,,,,,,,,,,,,,,,
1606529662.139380,15.000000,0.000000,4219.743652,4210.897461,4213.717773,4221.410156,4180.512695,4178.461426,4187.820313,4182.692383,4190.641113,4185.256348,4201.282227,4230.000000,4187.820313,4200.384766,3466.000000,2.000000,,,,0.000000,4.000000,4.000000,4.000000,4.000000,4.000000,4.000000,4.000000,4.000000,4.000000,4.000000,4.000000,4.000000,4.000000,4.000000,100.000000,,,,,,,,,,,,,,,,,,,,,,,,,,,,,,,,,,,,,,,,,,,,,,,,,,,,,,,,,,,,,,,,,,,,,,,,,,,,,,,,,,,,,,,,,,,,,,,,,,,,,,,,,,,,,,,,,
1606529662.147276,16.000000,0.000000,4218.717773,4208.461426,4223.333496,4226.794922,4188.846191,4193.589844,4205.256348,4198.077148,4199.102539,4193.205078,4213.461426,4232.179688,4193.333496,4202.563965,0.000000,2.000000,,,,0.000000,4.000000,4.000000,4.000000,4.000000,4.000000,4.000000,4.000000,4.000000,4.000000,4.000000,4.000000,4.000000,4.000000,4.000000,100.000000,4.000000,0.000000,0.664062,-0.445618,-0.557922,-0.221741,0.948745,-0.335943,-0.029297,-30.804913,-121.126114,13.009842,,,,,,,,,,,,,,,,,,,,,,,,,,,,,,,,,,,,,,,,,,,,,,,,,,,,,,,,,,,,,,,,,,,,,,,,,,,,,,,,,,,,,,,,,,,,,,,,,,,,,
1606529662.155171,17.000000,0.000000,4232.051270,4215.000000,4231.282227,4232.179688,4203.846191,4203.077148,4204.871582,4198.846191,4192.051270,4193.333496,4222.436035,4237.436035,4193.846191,4207.436035,0.000000,2.000000,,,,0.000000,4.000000,4.000000,4.000000,4.000000,4.000000,4.000000,4.000000,4.000000,4.000000,4.000000,4.000000,4.000000,4.000000,4.000000,100.000000,,,,,,,,,,,,,,,,,,,,,,,,,,,,,,,,,,,,,,,,,,,,,,,,,,,,,,,,,,,,,,,,,,,,,,,,,,,,,,,,,,,,,,,,,,,,,,,,,,,,,,,,,,,,,,,,,
1606529662.163167,18.000000,0.000000,4239.487305,4222.692383,4227.436035,4228.974121,4196.922852,4201.794922,4196.666504,4191.025879,4178.974121,4171.153809,4208.717773,4241.922852,4183.974121,4207.948730,0.000000,2.000000,,,,0.000000,4.000000,4.000000,4.000000,4.000000,4.000000,4.000000,4.000000,4.000000,4.000000,4.000000,4.000000,4.000000,4.000000,4.000000,100.000000,,,,,,,,,,,,,,,,,,,,,,,,,,,,,,,,,,,,,,,,,,,,,,,,,,,,,,,,,,,,,,,,,,,,,,,,,,,,,,,,,,,,,,,,,,,,,,,,,,,,,,,,,,,,,,,,,
1606529662.171063,19.000000,0.000000,4242.948730,4218.461426,4227.307617,4222.051270,4184.615234,4200.000000,4202.692383,4198.846191,4187.820313,4169.743652,4201.922852,4242.563965,4182.820313,4204.487305,0.000000,2.000000,,,,0.000000,4.000000,4.000000,4.000000,4.000000,4.000000,4.000000,4.000000,4.000000,4.000000,4.000000,4.000000,4.000000,4.000000,4.000000,100.000000,,,,,,,,,,,,,,,,,,,,,,,,,,,,,,,,,,,,,,,,,,,,,,,,,,,,,,,,,,,,,,,,,,,,,,,,,,,,,,,,,,,,,,,,,,,,,,,,,,,,,,,,,,,,,,,,,
1606529662.178959,20.000000,0.000000,4246.025879,4217.692383,4234.487305,4224.102539,4196.922852,4202.820313,4211.794922,4210.641113,4202.692383,4190.897461,4210.000000,4238.846191,4188.974121,4203.846191,0.000000,2.000000,,,,0.000000,4.000000,4.000000,4.000000,4.000000,4.000000,4.000000,4.000000,4.000000,4.000000,4.000000,4.000000,4.000000,4.000000,4.000000,100.000000,5.000000,0.000000,0.664815,-0.442505,-0.560486,-0.219238,0.934096,-0.362799,-0.020020,-32.300297,-122.023346,12.710765,,,,,,,,,,,,,,,,,,,,,,,,,,,,,,,,,,,,,,,,,,,,,,,,,,,,,,,,,,,,,,,,,,,,,,,,,,,,,,,,,,,,,,,,,,,,,,,,,,,,,
1606529662.186854,21.000000,0.000000,4231.025879,4218.589844,4225.128418,4230.769043,4197.692383,4202.820313,4207.307617,4207.051270,4201.410156,4188.205078,4205.769043,4231.794922,4184.358887,4201.922852,0.000000,2.000000,,,,0.000000,4.000000,4.000000,4.000000,4.000000,4.000000,4.000000,4.000000,4.000000,4.000000,4.000000,4.000000,4.000000,4.000000,4.000000,100.000000,,,,,,,,,,,,,,,,,,,,,,,,,,,,,,,,,,,,,,,,,,,,,,,,,,,,,,,,,,,,,,,,,,,,,,,,,,,,,,,,,,,,,,,,,,,,,,,,,,,,,,,,,,,,,,,,,
1606529662.194850,22.000000,0.000000,4215.128418,4208.974121,4215.000000,4232.179688,4186.282227,4201.538574,4198.846191,4199.358887,4196.666504,4178.205078,4201.538574,4231.794922,4180.641113,4197.820313,0.000000,2.000000,,,,0.000000,4.000000,4.000000,4.000000,4.000000,4.000000,4.000000,4.000000,4.000000,4.000000,4.000000,4.000000,4.000000,4.000000,4.000000,100.000000,,,,,,,,,,,,,,,,,,,,,,,,,,,,,,,,,,,,,,,,,,,,,,,,,,,,,,,,,,,,,,,,,,,,,,,,,,,,,,,,,,,,,,,,,,,,,,,,,,,,,,,,,,,,,,,,,
1606529662.202746,23.000000,0.000000,4219.615234,4206.922852,4225.000000,4224.615234,4195.769043,4201.922852,4196.538574,4199.358887,4200.641113,4192.051270,4213.974121,4242.820313,4192.563965,4206.538574,0.000000,2.000000,,,,0.000000,4.000000,4.000000,4.000000,4.000000,4.000000,4.000000,4.000000,4.000000,4.000000,4.000000,4.000000,4.000000,4.000000,4.000000,100.000000,,,,,,,,,,,,,,,,,,,,,,,,,,,,,,,,,,,,,,,,,,,,,,,,,,,,,,,,,,,,,,,,,,,,,,,,,,,,,,,,,,,,,,,,,,,,,,,,,,,,,,,,,,,,,,,,,
1606529662.210641,24.000000,0.000000,4229.615234,4215.128418,4228.205078,4218.717773,4208.333496,4199.871582,4197.179688,4201.538574,4206.538574,4204.487305,4222.436035,4250.256348,4204.358887,4215.000000,0.000000,2.000000,,,,0.000000,4.000000,4.000000,4.000000,4.000000,4.000000,4.000000,4.000000,4.000000,4.000000,4.000000,4.000000,4.000000,4.000000,4.000000,100.000000,6.000000,0.000000,0.665996,-0.438843,-0.563049,-0.216431,0.939467,-0.356939,-0.020020,-32.599373,-122.023346,12.411689,,,,,,,,,,,,,,,,,,,,,,,,,,,,,,,,,,,,,,,,,,,,,,,,,,,,,,,,,,,,,,,,,,,,,,,,,,,,,,,,,,,,,,,,,,,,,,,,,,,,,
1606529662.218537,25.000000,0.000000,4233.846191,4217.692383,4218.205078,4222.692383,4203.974121,4198.717773,4197.307617,4200.256348,4208.461426,4201.794922,4217.563965,4251.410156,4198.974121,4209.615234,0.000000,2.000000,,,,0.000000,4.000000,4.000000,4.000000,4.000000,4.000000,4.000000,4.000000,4.000000,4.000000,4.000000,4.000000,4.000000,4.000000,4.000000,100.000000,,,,,,,,,,,,,,,,,,,,,,,,,,,,,,,,,,,,,,,,,,,,,,,,,,,,,,,,,,,,,,,,,,,,,,,,,,,,,,,,,,,,,,,,,,,,,,,,,,,,,,,,,,,,,,,,,
1606529662.226433,26.000000,0.000000,4231.153809,4216.153809,4213.589844,4227.179688,4194.615234,4192.179688,4192.820313,4195.000000,4202.948730,4198.589844,4212.436035,4245.384766,4189.230957,4202.563965,0.000000,2.000000,,,,0.000000,4.000000,4.000000,4.000000,4.000000,4.000000,4.000000,4.000000,4.000000,4.000000,4.000000,4.000000,4.000000,4.000000,4.000000,100.000000,,,,,,,,,,,,,,,,,,,,,,,,,,,,,,,,,,,,,,,,,,,,,,,,,,,,,,,,,,,,,,,,,,,,,,,,,,,,,,,,,,,,,,,,,,,,,,,,,,,,,,,,,,,,,,,,,
1606529662.234429,27.000000,0.000000,4227.820313,4216.794922,4218.333496,4228.461426,4188.333496,4180.769043,4184.743652,4190.512695,4198.205078,4196.922852,4212.820313,4234.615234,4189.871582,4201.410156,0.000000,2.000000,,,,0.000000,4.000000,4.000000,4.000000,4.000000,4.000000,4.000000,4.000000,4.000000,4.000000,4.000000,4.000000,4.000000,4.000000,4.000000,100.000000,,,,,,,,,,,,,,,,,,,,,,,,,,,,,,,,,,,,,,,,,,,,,,,,,,,,,,,,,,,,,,,,,,,,,,,,,,,,,,,,,,,,,,,,,,,,,,,,,,,,,,,,,,,,,,,,,
1606529662.242325,28.000000,0.000000,4229.743652,4217.948730,4225.897461,4231.153809,4193.333496,4187.307617,4191.282227,4200.897461,4207.820313,4198.333496,4213.461426,4234.230957,4191.153809,4205.769043,0.000000,2.000000,,,,0.000000,4.000000,4.000000,4.000000,4.000000,4.000000,4.000000,4.000000,4.000000,4.000000,4.000000,4.000000,4.000000,4.000000,4.000000,100.000000,7.000000,0.000000,0.666354,-0.438232,-0.563171,-0.216248,0.947280,-0.362799,-0.005859,-33.047989,-121.275658,13.458457,,,,,,,,,,,,,,,,,,,,,,,,,,,,,,,,16.854931,1.821934,0.303743,0.451033,0.298918,7.586186,0.497705,0.524451,0.472566,0.230346,3.004068,1.128371,0.244615,0.369170,0.159946,2.158934,0.561440,0.429825,0.162208,0.165156,2.320550,0.349353,0.521692,1.584665,0.635765,1.946848,0.350027,0.194271,0.173652,0.130072,0.655838,0.208503,0.335885,0.193876,0.143332,2.607856,1.590548,0.486629,0.385566,0.187927,3.003261,0.512525,0.459202,0.302570,0.174044,2.376611,0.650968,0.510720,0.660738,0.384135,1.802826,0.991901,0.297490,0.387285,0.245252,3.128127,0.991101,0.192417,0.527933,0.171362,5.203842,0.714575,1.198264,0.608016,0.557560,5.279562,1.648666,0.390207,0.741807,0.264782
1606529662.250320,29.000000,0.000000,4233.461426,4224.615234,4231.410156,4233.461426,4210.384766,4205.512695,4205.384766,4218.205078,4222.051270,4211.666504,4215.897461,4245.897461,4193.846191,4211.922852,0.000000,2.000000,,,,0.000000,4.000000,4.000000,4.000000,4.000000,4.000000,4.000000,4.000000,4.000000,4.000000,4.000000,4.000000,4.000000,4.000000,4.000000,100.000000,,,,,,,,,,,,,,,,,,,,,,,,,,,,,,,,,,,,,,,,,,,,,,,,,,,,,,,,,,,,,,,,,,,,,,,,,,,,,,,,,,,,,,,,,,,,,,,,,,,,,,,,,,,,,,,,,
1606529662.258216,30.000000,0.000000,4237.948730,4233.846191,4236.153809,4232.948730,4209.615234,4203.974121,4202.563965,4210.897461,4221.025879,4218.205078,4221.922852,4248.974121,4204.487305,4216.410156,0.000000,2.000000,,,,0.000000,4.000000,4.000000,4.000000,4.000000,4.000000,4.000000,4.000000,4.000000,4.000000,4.000000,4.000000,4.000000,4.000000,4.000000,100.000000,,,,,,,,,,,,,,,,,,,,,,,,,,,,,,,,,,,,,,,,,,,,,,,,,,,,,,,,,,,,,,,,,,,,,,,,,,,,,,,,,,,,,,,,,,,,,,,,,,,,,,,,,,,,,,,,,
1606529662.266112,31.000000,0.000000,4247.307617,4234.358887,4244.230957,4236.282227,4198.077148,4194.102539,4197.820313,4200.769043,4213.717773,4206.922852,4231.666504,4248.205078,4211.538574,4225.256348,0.000000,2.000000,,,,0.000000,4.000000,4.000000,4.000000,4.000000,4.000000,4.000000,4.000000,4.000000,4.000000,4.000000,4.000000,4.000000,4.000000,4.000000,100.000000,,,,,,,,,,,,,,,,,,,,,,,,,,,,,,,,,,,,,,,,,,,,,,,,,,,,,,,,,,,,,,,,,,,,,,,,,,,,,,,,,,,,,,,,,,,,,,,,,,,,,,,,,,,,,,,,,
1606529662.274008,32.000000,0.000000,4247.563965,4230.000000,4246.282227,4235.000000,4201.153809,4197.436035,4201.282227,4208.589844,4214.102539,4205.256348,4232.051270,4256.153809,4212.436035,4232.051270,0.000000,2.000000,,,,0.000000,4.000000,4.000000,4.000000,4.000000,4.000000,4.000000,4.000000,4.000000,4.000000,4.000000,4.000000,4.000000,4.000000,4.000000,100.000000,8.000000,0.000000,0.666035,-0.440063,-0.561340,-0.218262,0.972671,-0.349126,-0.012207,-33.496605,-120.827042,11.963073,,,,,,,,,,,,,,,,,,,,,,,,,,,,,,,,,,,,,,,,,,,,,,,,,,,,,,,,,,,,,,,,,,,,,,,,,,,,,,,,,,,,,,,,,,,,,,,,,,,,,
1606529662.281904,33.000000,0.000000,4234.487305,4221.282227,4235.769043,4227.051270,4201.153809,4200.000000,4200.128418,4207.820313,4216.153809,4215.256348,4220.512695,4256.282227,4206.666504,4221.922852,0.000000,2.000000,,,,0.000000,4.000000,4.000000,4.000000,4.000000,4.000000,4.000000,4.000000,4.000000,4.000000,4.000000,4.000000,4.000000,4.000000,4.000000,100.000000,,,,,,,,,,,,,,,,,,,,,,,,,,,,,,,,,,,,,,,,,,,,,,,,,,,,,,,,,,,,,,,,,,,,,,,,,,,,,,,,,,,,,,,,,,,,,,,,,,,,,,,,,,,,,,,,,
1606529662.289799,34.000000,0.000000,4229.871582,4219.102539,4232.051270,4231.153809,4201.153809,4201.025879,4199.487305,4206.410156,4220.384766,4216.025879,4217.307617,4250.769043,4195.897461,4213.333496,0.000000,2.000000,,,,0.000000,4.000000,4.000000,4.000000,4.000000,4.000000,4.000000,4.000000,4.000000,4.000000,4.000000,4.000000,4.000000,4.000000,4.000000,100.000000,,,,,,,,,,,,,,,,,,,,,,,,,,,,,,,,,,,,,,,,,,,,,,,,,,,,,,,,,,,,,,,,,,,,,,,,,,,,,,,,,,,,,,,,,,,,,,,,,,,,,,,,,,,,,,,,,
1606529662.297795,35.000000,0.000000,4233.974121,4226.153809,4233.077148,4234.871582,4211.025879,4205.897461,4203.717773,4211.666504,4226.794922,4213.333496,4219.615234,4249.230957,4191.922852,4216.666504,0.000000,2.000000,,,,0.000000,4.000000,4.000000,4.000000,4.000000,4.000000,4.000000,4.000000,4.000000,4.000000,4.000000,4.000000,4.000000,4.000000,4.000000,100.000000,,,,,,,,,,,,,,,,,,,,,,,,,,,,,,,,,,,,,,,,,,,,,,,,,,,,,,,,,,,,,,,,,,,,,,,,,,,,,,,,,,,,,,,,,,,,,,,,,,,,,,,,,,,,,,,,,
1606529662.305691,36.000000,0.000000,4228.461426,4223.205078,4227.051270,4228.846191,4212.179688,4203.589844,4202.948730,4208.717773,4229.230957,4215.512695,4218.077148,4246.922852,4196.666504,4213.589844,0.000000,2.000000,,,,0.000000,4.000000,4.000000,4.000000,4.000000,4.000000,4.000000,4.000000,4.000000,4.000000,4.000000,4.000000,4.000000,4.000000,4.000000,100.000000,9.000000,0.000000,0.665801,-0.441162,-0.560303,-0.219421,0.953628,-0.358404,-0.003906,-32.898453,-121.873810,11.364920,,,,,,,,,,,,,,,,,,,,,,,,,,,,,,,,,,,,,,,,,,,,,,,,,,,,,,,,,,,,,,,,,,,,,,,,,,,,,,,,,,,,,,,,,,,,,,,,,,,,,
1606529662.313587,37.000000,0.000000,4228.077148,4217.692383,4231.922852,4233.846191,4208.333496,4199.358887,4201.922852,4207.179688,4231.794922,4216.922852,4222.307617,4252.692383,4203.077148,4215.769043,0.000000,2.000000,,,,0.000000,4.000000,4.000000,4.000000,4.000000,4.000000,4.000000,4.000000,4.000000,4.000000,4.000000,4.000000,4.000000,4.000000,4.000000,100.000000,,,,,,,,,,,,,,,,,,,,,,,,,,,,,,,,,,,,,,,,,,,,,,,,,,,,,,,,,,,,,,,,,,,,,,,,,,,,,,,,,,,,,,,,,,,,,,,,,,,,,,,,,,,,,,,,,
1606529662.321583,38.000000,0.000000,4242.820313,4231.538574,4242.179688,4244.487305,4215.897461,4202.948730,4204.487305,4210.256348,4228.974121,4219.358887,4232.051270,4264.615234,4203.974121,4231.922852,0.000000,2.000000,,,,0.000000,4.000000,4.000000,4.000000,4.000000,4.000000,4.000000,4.000000,4.000000,4.000000,4.000000,4.000000,4.000000,4.000000,4.000000,100.000000,,,,,,,,,,,,,,,,,,,,,,,,,,,,,,,,,,,,,,,,,,,,,,,,,,,,,,,,,,,,,,,,,,,,,,,,,,,,,,,,,,,,,,,,,,,,,,,,,,,,,,,,,,,,,,,,,
1606529662.329479,39.000000,0.000000,4244.487305,4238.205078,4236.025879,4240.000000,4216.025879,4201.025879,4202.692383,4205.641113,4220.769043,4221.282227,4232.563965,4262.692383,4200.897461,4234.615234,0.000000,2.000000,,,,0.000000,4.000000,4.000000,4.000000,4.000000,4.000000,4.000000,4.000000,4.000000,4.000000,4.000000,4.000000,4.000000,4.000000,4.000000,100.000000,,,,,,,,,,,,,,,,,,,,,,,,,,,,,,,,,,,,,,,,,,,,,,,,,,,,,,,,,,,,,,,,,,,,,,,,,,,,,,,,,,,,,,,,,,,,,,,,,,,,,,,,,,,,,,,,,
1606529662.337375,40.000000,0.000000,4228.717773,4215.897461,4226.410156,4227.436035,4198.205078,4189.230957,4198.846191,4201.794922,4219.615234,4220.128418,4222.692383,4249.230957,4196.538574,4218.974121,0.000000,2.000000,,,,0.000000,4.000000,4.000000,4.000000,4.000000,4.000000,4.000000,4.000000,4.000000,4.000000,4.000000,4.000000,4.000000,4.000000,4.000000,100.000000,10.000000,0.000000,0.665364,-0.442932,-0.558655,-0.221375,0.965835,-0.347173,-0.006348,-34.842449,-120.677498,13.308919,,,,,,,,,,,,,,,,,,,,,,,,,,,,,,,,,,,,,,,,,,,,,,,,,,,,,,,,,,,,,,,,,,,,,,,,,,,,,,,,,,,,,,,,,,,,,,,,,,,,,
1606529662.345371,41.000000,0.000000,4226.538574,4204.615234,4231.538574,4231.153809,4196.538574,4185.256348,4197.692383,4204.871582,4215.384766,4214.358887,4218.077148,4246.282227,4192.307617,4212.179688,0.000000,2.000000,,,,0.000000,4.000000,4.000000,4.000000,4.000000,4.000000,4.000000,4.000000,4.000000,4.000000,4.000000,4.000000,4.000000,4.000000,4.000000,100.000000,,,,,,,,,,,,,,,,,,,,,,,,,,,,,,,,,,,,,,,,,,,,,,,,,,,,,,,,,,,,,,,,,,,,,,,,,,,,,,,,,,,,,,,,,,,,,,,,,,,,,,,,,,,,,,,,,
1606529662.353267,42.000000,0.000000,4235.384766,4217.563965,4235.769043,4242.820313,4213.333496,4190.256348,4199.102539,4201.282227,4202.563965,4203.974121,4218.589844,4248.717773,4190.000000,4215.128418,0.000000,2.000000,,,,0.000000,4.000000,4.000000,4.000000,4.000000,4.000000,4.000000,4.000000,4.000000,4.000000,4.000000,4.000000,4.000000,4.000000,4.000000,100.000000,,,,,,,,,,,,,,,,,,,,,,,,,,,,,,,,,,,,,,,,,,,,,,,,,,,,,,,,,,,,,,,,,,,,,,,,,,,,,,,,,,,,,,,,,,,,,,,,,,,,,,,,,,,,,,,,,
1606529662.361162,43.000000,0.000000,4235.897461,4222.307617,4232.179688,4247.051270,4214.487305,4190.128418,4200.384766,4199.102539,4204.615234,4204.487305,4215.897461,4246.538574,4192.820313,4215.256348,0.000000,2.000000,,,,0.000000,4.000000,4.000000,4.000000,4.000000,4.000000,4.000000,4.000000,4.000000,4.000000,4.000000,4.000000,4.000000,4.000000,4.000000,100.000000,,,,,,,,,,,,,,,,,,,,,,,,,,,,,,,,,,,,,,,,,,,,,,,,,,,,,,,,,,,,,,,,,,,,,,,,,,,,,,,,,,,,,,,,,,,,,,,,,,,,,,,,,,,,,,,,,
1606529662.369058,44.000000,0.000000,4234.358887,4222.692383,4233.461426,4250.512695,4209.487305,4184.871582,4199.871582,4204.743652,4216.666504,4214.871582,4217.692383,4247.820313,4199.230957,4217.692383,0.000000,2.000000,,,,0.000000,4.000000,4.000000,4.000000,4.000000,4.000000,4.000000,4.000000,4.000000,4.000000,4.000000,4.000000,4.000000,4.000000,4.000000,100.000000,11.000000,0.000000,0.665275,-0.443298,-0.558228,-0.221985,0.965347,-0.348150,-0.003906,-32.300297,-121.275658,11.963073,,,,,,,,,,,,,,,,,,,,,,,,,,,,,,,,15.276028,2.025252,0.417998,0.535296,0.321806,7.316227,0.628544,0.628614,0.498868,0.284938,2.656825,1.109729,0.261300,0.380230,0.154292,1.821109,0.588298,0.438761,0.154975,0.194421,2.298513,0.379680,0.549952,1.503052,0.687342,2.026004,0.315261,0.169379,0.162887,0.146413,0.646455,0.207779,0.305760,0.179542,0.149852,2.707853,1.743044,0.471790,0.363830,0.187283,2.990999,0.460710,0.411192,0.308757,0.164698,2.135147,0.554510,0.469672,0.641779,0.378620,1.414977,1.032924,0.305218,0.374549,0.238358,2.721790,1.142226,0.196474,0.506069,0.163826,4.141533,0.734862,1.164562,0.555312,0.489808,4.535685,1.761074,0.434478,0.750931,0.288901
1606529662.377054,45.000000,0.000000,4234.743652,4228.589844,4233.589844,4246.025879,4213.077148,4186.025879,4200.897461,4205.256348,4215.128418,4215.384766,4224.358887,4250.897461,4202.179688,4219.102539,0.000000,2.000000,,,,0.000000,4.000000,4.000000,4.000000,4.000000,4.000000,4.000000,4.000000,4.000000,4.000000,4.000000,4.000000,4.000000,4.000000,4.000000,100.000000,,,,,,,,,,,,,,,,,,,,,,,,,,,,,,,,,,,,,,,,,,,,,,,,,,,,,,,,,,,,,,,,,,,,,,,,,,,,,,,,,,,,,,,,,,,,,,,,,,,,,,,,,,,,,,,,,
1606529662.384950,46.000000,0.000000,4229.615234,4223.717773,4228.589844,4234.615234,4212.692383,4192.179688,4202.436035,4201.538574,4212.307617,4214.487305,4227.436035,4247.563965,4204.487305,4214.230957,0.000000,2.000000,,,,0.000000,4.000000,4.000000,4.000000,4.000000,4.000000,4.000000,4.000000,4.000000,4.000000,4.000000,4.000000,4.000000,4.000000,4.000000,100.000000,,,,,,,,,,,,,,,,,,,,,,,,,,,,,,,,,,,,,,,,,,,,,,,,,,,,,,,,,,,,,,,,,,,,,,,,,,,,,,,,,,,,,,,,,,,,,,,,,,,,,,,,,,,,,,,,,
1606529662.392846,47.000000,0.000000,4223.974121,4213.333496,4228.333496,4236.282227,4200.000000,4193.077148,4198.589844,4202.820313,4215.512695,4220.897461,4227.436035,4243.333496,4201.794922,4210.512695,0.000000,2.000000,,,,0.000000,4.000000,4.000000,4.000000,4.000000,4.000000,4.000000,4.000000,4.000000,4.000000,4.000000,4.000000,4.000000,4.000000,4.000000,100.000000,,,,,,,,,,,,,,,,,,,,,,,,,,,,,,,,,,,,,,,,,,,,,,,,,,,,,,,,,,,,,,,,,,,,,,,,,,,,,,,,,,,,,,,,,,,,,,,,,,,,,,,,,,,,,,,,,
1606529662.400742,48.000000,0.000000,4228.974121,4218.461426,4232.179688,4248.461426,4198.717773,4188.205078,4197.179688,4211.410156,4217.820313,4219.615234,4228.077148,4246.153809,4201.794922,4212.820313,0.000000,2.000000,,,,0.000000,4.000000,4.000000,4.000000,4.000000,4.000000,4.000000,4.000000,4.000000,4.000000,4.000000,4.000000,4.000000,4.000000,4.000000,100.000000,12.000000,0.000000,0.665586,-0.442383,-0.558777,-0.221497,0.947280,-0.333989,0.012207,-32.449837,-120.677498,11.364920,,,,,,,,,,,,,,,,,,,,,,,,,,,,,,,,,,,,,,,,,,,,,,,,,,,,,,,,,,,,,,,,,,,,,,,,,,,,,,,,,,,,,,,,,,,,,,,,,,,,,
1606529662.408637,49.000000,0.000000,4235.769043,4223.077148,4231.794922,4249.358887,4207.307617,4184.743652,4201.410156,4217.179688,4223.717773,4216.538574,4222.563965,4247.692383,4203.077148,4210.512695,0.000000,2.000000,,,,0.000000,4.000000,4.000000,4.000000,4.000000,4.000000,4.000000,4.000000,4.000000,4.000000,4.000000,4.000000,4.000000,4.000000,4.000000,100.000000,,,,,,,,,,,,,,,,,,,,,,,,,,,,,,,,,,,,,,,,,,,,,,,,,,,,,,,,,,,,,,,,,,,,,,,,,,,,,,,,,,,,,,,,,,,,,,,,,,,,,,,,,,,,,,,,,
1606529662.416533,50.000000,0.000000,4229.615234,4212.692383,4229.102539,4242.307617,4206.025879,4188.846191,4200.256348,4217.307617,4230.384766,4223.589844,4214.230957,4242.692383,4188.717773,4201.153809,0.000000,2.000000,,,,0.000000,4.000000,4.000000,4.000000,4.000000,4.000000,4.000000,4.000000,4.000000,4.000000,4.000000,4.000000,4.000000,4.000000,4.000000,100.000000,,,,,,,,,,,,,,,,,,,,,,,,,,,,,,,,,,,,,,,,,,,,,,,,,,,,,,,,,,,,,,,,,,,,,,,,,,,,,,,,,,,,,,,,,,,,,,,,,,,,,,,,,,,,,,,,,
1606529662.424329,51.000000,0.000000,4231.794922,4218.974121,4235.769043,4246.794922,4209.871582,4198.846191,4198.205078,4218.205078,4231.666504,4230.000000,4224.743652,4248.589844,4191.794922,4208.974121,0.000000,2.000000,,,,0.000000,4.000000,4.000000,4.000000,4.000000,4.000000,4.000000,4.000000,4.000000,4.000000,4.000000,4.000000,4.000000,4.000000,4.000000,100.000000,,,,,,,,,,,,,,,,,,,,,,,,,,,,,,,,,,,,,,,,,,,,,,,,,,,,,,,,,,,,,,,,,,,,,,,,,,,,,,,,,,,,,,,,,,,,,,,,,,,,,,,,,,,,,,,,,
1606529662.432225,52.000000,0.000000,4248.846191,4235.769043,4246.153809,4255.897461,4219.615234,4203.077148,4201.538574,4217.820313,4231.282227,4230.769043,4243.717773,4261.794922,4222.307617,4229.358887,0.000000,2.000000,,,,0.000000,4.000000,4.000000,4.000000,4.000000,4.000000,4.000000,4.000000,4.000000,4.000000,4.000000,4.000000,4.000000,4.000000,4.000000,100.000000,13.000000,0.000000,0.665608,-0.442505,-0.558655,-0.221497,0.956558,-0.350103,-0.012207,-33.047989,-122.023346,11.963073,,,,,,,,,,,,,,,,,,,,,,,,,,,,,,,,,,,,,,,,,,,,,,,,,,,,,,,,,,,,,,,,,,,,,,,,,,,,,,,,,,,,,,,,,,,,,,,,,,,,,
1606529662.440120,53.000000,0.000000,4244.743652,4227.051270,4245.769043,4258.974121,4218.461426,4199.102539,4202.692383,4217.307617,4228.846191,4232.563965,4244.358887,4263.333496,4227.692383,4233.589844,0.000000,2.000000,,,,0.000000,4.000000,4.000000,4.000000,4.000000,4.000000,4.000000,4.000000,4.000000,4.000000,4.000000,4.000000,4.000000,4.000000,4.000000,100.000000,,,,,,,,,,,,,,,,,,,,,,,,,,,,,,,,,,,,,,,,,,,,,,,,,,,,,,,,,,,,,,,,,,,,,,,,,,,,,,,,,,,,,,,,,,,,,,,,,,,,,,,,,,,,,,,,,
1606529662.448016,54.000000,0.000000,4216.666504,4210.641113,4237.692383,4245.641113,4212.948730,4198.717773,4203.205078,4214.615234,4216.794922,4224.487305,4231.153809,4251.922852,4204.743652,4216.538574,0.000000,2.000000,,,,0.000000,4.000000,4.000000,4.000000,4.000000,4.000000,4.000000,4.000000,4.000000,4.000000,4.000000,4.000000,4.000000,4.000000,4.000000,100.000000,,,,,,,,,,,,,,,,,,,,,,,,,,,,,,,,,,,,,,,,,,,,,,,,,,,,,,,,,,,,,,,,,,,,,,,,,,,,,,,,,,,,,,,,,,,,,,,,,,,,,,,,,,,,,,,,,
1606529662.455812,55.000000,0.000000,4207.179688,4209.615234,4230.384766,4230.128418,4215.000000,4198.461426,4202.820313,4205.000000,4199.487305,4203.974121,4221.410156,4237.179688,4195.512695,4200.256348,0.000000,2.000000,,,,0.000000,4.000000,4.000000,4.000000,4.000000,4.000000,4.000000,4.000000,4.000000,4.000000,4.000000,4.000000,4.000000,4.000000,4.000000,100.000000,,,,,,,,,,,,,,,,,,,,,,,,,,,,,,,,,,,,,,,,,,,,,,,,,,,,,,,,,,,,,,,,,,,,,,,,,,,,,,,,,,,,,,,,,,,,,,,,,,,,,,,,,,,,,,,,,
1606529662.463707,56.000000,0.000000,4223.717773,4216.410156,4228.461426,4239.615234,4217.692383,4197.051270,4203.077148,4200.000000,4196.922852,4200.384766,4224.487305,4235.512695,4202.307617,4203.205078,0.000000,2.000000,,,,0.000000,4.000000,4.000000,4.000000,4.000000,4.000000,4.000000,4.000000,4.000000,4.000000,4.000000,4.000000,4.000000,4.000000,4.000000,100.000000,14.000000,0.000000,0.665187,-0.444031,-0.557556,-0.222473,0.959487,-0.342290,-0.003906,-32.300297,-121.275658,12.710765,,,,,,,,,,,,,,,,,,,,,,,,,,,,,,,,,,,,,,,,,,,,,,,,,,,,,,,,,,,,,,,,,,,,,,,,,,,,,,,,,,,,,,,,,,,,,,,,,,,,,
1606529662.471603,57.000000,0.000000,4238.205078,4222.563965,4233.077148,4254.871582,4217.820313,4205.256348,4208.717773,4206.922852,4209.743652,4217.307617,4234.358887,4248.846191,4210.769043,4216.153809,0.000000,2.000000,,,,0.000000,4.000000,4.000000,4.000000,4.000000,4.000000,4.000000,4.000000,4.000000,4.000000,4.000000,4.000000,4.000000,4.000000,4.000000,100.000000,,,,,,,,,,,,,,,,,,,,,,,,,,,,,,,,,,,,,,,,,,,,,,,,,,,,,,,,,,,,,,,,,,,,,,,,,,,,,,,,,,,,,,,,,,,,,,,,,,,,,,,,,,,,,,,,,
1606529662.479499,58.000000,0.000000,4231.666504,4224.230957,4234.743652,4251.538574,4220.769043,4216.794922,4216.025879,4214.615234,4218.846191,4225.512695,4235.897461,4252.692383,4218.205078,4223.333496,0.000000,2.000000,,,,0.000000,4.000000,4.000000,4.000000,4.000000,4.000000,4.000000,4.000000,4.000000,4.000000,4.000000,4.000000,4.000000,4.000000,4.000000,100.000000,,,,,,,,,,,,,,,,,,,,,,,,,,,,,,,,,,,,,,,,,,,,,,,,,,,,,,,,,,,,,,,,,,,,,,,,,,,,,,,,,,,,,,,,,,,,,,,,,,,,,,,,,,,,,,,,,
1606529662.487295,59.000000,0.000000,4216.025879,4217.051270,4230.256348,4243.974121,4217.307617,4216.538574,4217.307617,4216.153809,4217.436035,4217.563965,4225.000000,4237.436035,4211.410156,4213.974121,0.000000,2.000000,,,,0.000000,4.000000,4.000000,4.000000,4.000000,4.000000,4.000000,4.000000,4.000000,4.000000,4.000000,4.000000,4.000000,4.000000,4.000000,100.000000,,,,,,,,,,,,,,,,,,,,,,,,,,,,,,,,,,,,,,,,,,,,,,,,,,,,,,,,,,,,,,,,,,,,,,,,,,,,,,,,,,,,,,,,,,,,,,,,,,,,,,,,,,,,,,,,,
1606529662.494991,60.000000,0.000000,4219.358887,4214.487305,4230.128418,4247.179688,4210.769043,4208.974121,4211.025879,4210.384766,4217.563965,4213.333496,4216.538574,4229.230957,4201.538574,4204.743652,0.000000,2.000000,,,,0.000000,4.000000,4.000000,4.000000,4.000000,4.000000,4.000000,4.000000,4.000000,4.000000,4.000000,4.000000,4.000000,4.000000,4.000000,100.000000,15.000000,0.000000,0.664314,-0.446899,-0.555420,-0.224670,0.955581,-0.350103,-0.005371,-32.449837,-122.172882,13.308919,,,,,,,,,,,,,,,,,,,,,,,,,,,,,,,,12.643934,2.156388,0.574229,0.635747,0.340654,6.730742,0.812454,0.743284,0.510353,0.356675,2.336608,1.115942,0.328452,0.384535,0.146923,1.456263,0.597751,0.441898,0.153697,0.223411,2.101765,0.434004,0.571021,1.348492,0.729686,1.908857,0.285231,0.155984,0.153717,0.165264,0.631566,0.198076,0.277804,0.172283,0.159368,2.595473,1.794333,0.469987,0.338695,0.202781,2.856721,0.470752,0.365822,0.323998,0.160236,2.054527,0.493781,0.413737,0.648449,0.366450,1.202192,1.035123,0.296597,0.368141,0.225631,2.373374,1.245731,0.222398,0.486472,0.160723,3.129220,0.732741,1.021879,0.520614,0.413165,3.639630,1.784969,0.516398,0.738582,0.307137
1606529662.502687,61.000000,0.000000,4229.487305,4217.436035,4230.769043,4249.358887,4209.615234,4201.153809,4204.230957,4202.948730,4217.563965,4212.948730,4216.538574,4229.358887,4201.153809,4205.897461,0.000000,2.000000,,,,0.000000,4.000000,4.000000,4.000000,4.000000,4.000000,4.000000,4.000000,4.000000,4.000000,4.000000,4.000000,4.000000,4.000000,4.000000,100.000000,,,,,,,,,,,,,,,,,,,,,,,,,,,,,,,,,,,,,,,,,,,,,,,,,,,,,,,,,,,,,,,,,,,,,,,,,,,,,,,,,,,,,,,,,,,,,,,,,,,,,,,,,,,,,,,,,
1606529662.510382,62.000000,0.000000,4228.205078,4215.256348,4226.538574,4245.897461,4210.512695,4200.128418,4207.051270,4202.820313,4214.102539,4212.051270,4221.538574,4229.102539,4208.589844,4212.179688,0.000000,2.000000,,,,0.000000,4.000000,4.000000,4.000000,4.000000,4.000000,4.000000,4.000000,4.000000,4.000000,4.000000,4.000000,4.000000,4.000000,4.000000,100.000000,,,,,,,,,,,,,,,,,,,,,,,,,,,,,,,,,,,,,,,,,,,,,,,,,,,,,,,,,,,,,,,,,,,,,,,,,,,,,,,,,,,,,,,,,,,,,,,,,,,,,,,,,,,,,,,,,
1606529662.517978,63.000000,0.000000,4232.948730,4221.922852,4230.384766,4250.769043,4216.666504,4213.461426,4218.205078,4220.897461,4222.307617,4221.410156,4235.384766,4241.025879,4223.461426,4223.717773,0.000000,2.000000,,,,0.000000,4.000000,4.000000,4.000000,4.000000,4.000000,4.000000,4.000000,4.000000,4.000000,4.000000,4.000000,4.000000,4.000000,4.000000,100.000000,,,,,,,,,,,,,,,,,,,,,,,,,,,,,,,,,,,,,,,,,,,,,,,,,,,,,,,,,,,,,,,,,,,,,,,,,,,,,,,,,,,,,,,,,,,,,,,,,,,,,,,,,,,,,,,,,
1606529662.525674,64.000000,0.000000,4244.871582,4231.794922,4238.974121,4250.384766,4222.051270,4219.358887,4222.436035,4236.410156,4238.846191,4232.051270,4242.179688,4251.153809,4228.974121,4230.000000,3453.000000,2.000000,,,,0.000000,4.000000,4.000000,4.000000,4.000000,4.000000,4.000000,4.000000,4.000000,4.000000,4.000000,4.000000,4.000000,4.000000,4.000000,100.000000,16.000000,0.000000,0.663283,-0.450256,-0.552917,-0.227173,0.943862,-0.359869,-0.006836,-32.898453,-121.425194,11.364920,,,,,,,,,,,,,,,,,,,,,,,,,,,,,,,,,,,,,,,,,,,,,,,,,,,,,,,,,,,,,,,,,,,,,,,,,,,,,,,,,,,,,,,,,,,,,,,,,,,,,
1606529662.533370,65.000000,0.000000,4249.743652,4232.179688,4245.256348,4249.102539,4220.512695,4208.974121,4218.077148,4229.615234,4236.922852,4235.000000,4237.820313,4249.102539,4225.641113,4234.615234,3467.000000,2.000000,,,,0.000000,4.000000,4.000000,4.000000,4.000000,4.000000,4.000000,4.000000,4.000000,4.000000,4.000000,4.000000,4.000000,4.000000,4.000000,100.000000,,,,,,,,,,,,,,,,,,,,,,,,,,,,,,,,,,,,,,,,,,,,,,,,,,,,,,,,,,,,,,,,,,,,,,,,,,,,,,,,,,,,,,,,,,,,,,,,,,,,,,,,,,,,,,,,,
1606529662.541066,66.000000,0.000000,4245.641113,4228.589844,4246.922852,4257.179688,4221.794922,4204.871582,4212.436035,4212.692383,4219.615234,4229.358887,4234.615234,4242.051270,4225.000000,4235.769043,3580.000000,2.000000,,,,0.000000,4.000000,4.000000,4.000000,4.000000,4.000000,4.000000,4.000000,4.000000,4.000000,4.000000,4.000000,4.000000,4.000000,4.000000,100.000000,,,,,,,,,,,,,,,,,,,,,,,,,,,,,,,,,,,,,,,,,,,,,,,,,,,,,,,,,,,,,,,,,,,,,,,,,,,,,,,,,,,,,,,,,,,,,,,,,,,,,,,,,,,,,,,,,
1606529662.548862,67.000000,0.000000,4236.666504,4223.846191,4236.025879,4256.025879,4221.282227,4205.384766,4206.538574,4203.461426,4212.948730,4220.897461,4232.179688,4236.538574,4220.897461,4225.000000,3568.000000,2.000000,,,,0.000000,4.000000,4.000000,4.000000,4.000000,4.000000,4.000000,4.000000,4.000000,4.000000,4.000000,4.000000,4.000000,4.000000,4.000000,100.000000,,,,,,,,,,,,,,,,,,,,,,,,,,,,,,,,,,,,,,,,,,,,,,,,,,,,,,,,,,,,,,,,,,,,,,,,,,,,,,,,,,,,,,,,,,,,,,,,,,,,,,,,,,,,,,,,,
1606529662.556558,68.000000,0.000000,4229.743652,4217.307617,4230.000000,4249.102539,4207.051270,4198.333496,4201.410156,4205.769043,4215.256348,4214.358887,4227.563965,4231.410156,4212.436035,4214.871582,3670.000000,2.000000,,,,0.000000,4.000000,4.000000,4.000000,4.000000,4.000000,4.000000,4.000000,4.000000,4.000000,4.000000,4.000000,4.000000,4.000000,4.000000,100.000000,17.000000,0.000000,0.661919,-0.454407,-0.549988,-0.229980,0.962417,-0.363775,-0.018555,-31.702145,-121.126114,13.009842,,,,,,,,,,,,,,,,,,,,,,,,,,,,,,,,,,,,,,,,,,,,,,,,,,,,,,,,,,,,,,,,,,,,,,,,,,,,,,,,,,,,,,,,,,,,,,,,,,,,,
1606529662.564254,69.000000,0.000000,4231.153809,4213.205078,4241.410156,4252.436035,4203.461426,4197.563965,4201.922852,4212.948730,4213.205078,4214.615234,4228.077148,4234.615234,4214.358887,4223.205078,3247.000000,2.000000,,,,0.000000,4.000000,4.000000,4.000000,4.000000,4.000000,4.000000,4.000000,4.000000,4.000000,4.000000,4.000000,4.000000,4.000000,4.000000,100.000000,,,,,,,,,,,,,,,,,,,,,,,,,,,,,,,,,,,,,,,,,,,,,,,,,,,,,,,,,,,,,,,,,,,,,,,,,,,,,,,,,,,,,,,,,,,,,,,,,,,,,,,,,,,,,,,,,
1606529662.571950,70.000000,0.000000,4233.846191,4217.307617,4247.179688,4256.410156,4217.307617,4207.436035,4210.256348,4218.846191,4215.897461,4218.205078,4235.897461,4242.307617,4225.128418,4239.230957,2647.000000,2.000000,,,,0.000000,4.000000,4.000000,4.000000,4.000000,4.000000,4.000000,4.000000,4.000000,4.000000,4.000000,4.000000,4.000000,4.000000,4.000000,100.000000,,,,,,,,,,,,,,,,,,,,,,,,,,,,,,,,,,,,,,,,,,,,,,,,,,,,,,,,,,,,,,,,,,,,,,,,,,,,,,,,,,,,,,,,,,,,,,,,,,,,,,,,,,,,,,,,,
1606529662.579546,71.000000,0.000000,4228.846191,4215.641113,4231.025879,4249.230957,4211.538574,4203.205078,4214.871582,4213.333496,4216.025879,4209.102539,4234.230957,4238.333496,4222.820313,4231.410156,3007.000000,2.000000,,,,0.000000,4.000000,4.000000,4.000000,4.000000,4.000000,4.000000,4.000000,4.000000,4.000000,4.000000,4.000000,4.000000,4.000000,4.000000,100.000000,,,,,,,,,,,,,,,,,,,,,,,,,,,,,,,,,,,,,,,,,,,,,,,,,,,,,,,,,,,,,,,,,,,,,,,,,,,,,,,,,,,,,,,,,,,,,,,,,,,,,,,,,,,,,,,,,
1606529662.587242,72.000000,0.000000,4221.153809,4203.974121,4216.794922,4242.436035,4198.461426,4195.384766,4213.846191,4209.487305,4207.051270,4195.512695,4220.256348,4225.769043,4206.282227,4214.871582,3221.000000,2.000000,,,,0.000000,4.000000,4.000000,4.000000,4.000000,4.000000,4.000000,4.000000,4.000000,4.000000,4.000000,4.000000,4.000000,4.000000,4.000000,100.000000,18.000000,0.000000,0.661115,-0.456726,-0.548340,-0.231628,0.957534,-0.368658,-0.010742,-32.599373,-121.574730,11.215381,,,,,,,,,,,,,,,,,,,,,,,,,,,,,,,,,,,,,,,,,,,,,,,,,,,,,,,,,,,,,,,,,,,,,,,,,,,,,,,,,,,,,,,,,,,,,,,,,,,,,
1606529662.594938,73.000000,0.000000,4213.205078,4195.256348,4221.410156,4241.794922,4208.333496,4204.487305,4216.282227,4224.615234,4209.615234,4198.077148,4211.410156,4220.641113,4193.974121,4212.820313,3617.000000,2.000000,,,,0.000000,4.000000,4.000000,4.000000,4.000000,4.000000,4.000000,4.000000,4.000000,4.000000,4.000000,4.000000,4.000000,4.000000,4.000000,100.000000,,,,,,,,,,,,,,,,,,,,,,,,,,,,,,,,,,,,,,,,,,,,,,,,,,,,,,,,,,,,,,,,,,,,,,,,,,,,,,,,,,,,,,,,,,,,,,,,,,,,,,,,,,,,,,,,,
1606529662.602634,74.000000,0.000000,4215.769043,4200.641113,4229.358887,4245.384766,4222.051270,4217.948730,4217.948730,4231.922852,4225.128418,4215.000000,4215.897461,4228.205078,4202.307617,4217.948730,3601.000000,2.000000,,,,0.000000,4.000000,4.000000,4.000000,4.000000,4.000000,4.000000,4.000000,4.000000,4.000000,4.000000,4.000000,4.000000,4.000000,4.000000,100.000000,,,,,,,,,,,,,,,,,,,,,,,,,,,,,,,,,,,,,,,,,,,,,,,,,,,,,,,,,,,,,,,,,,,,,,,,,,,,,,,,,,,,,,,,,,,,,,,,,,,,,,,,,,,,,,,,,
1606529662.610230,75.000000,0.000000,4227.563965,4210.128418,4231.153809,4250.897461,4217.307617,4217.307617,4214.102539,4219.358887,4227.948730,4224.487305,4221.922852,4235.769043,4219.102539,4219.358887,3464.000000,2.000000,,,,0.000000,4.000000,4.000000,4.000000,4.000000,4.000000,4.000000,4.000000,4.000000,4.000000,4.000000,4.000000,4.000000,4.000000,4.000000,100.000000,,,,,,,,,,,,,,,,,,,,,,,,,,,,,,,,,,,,,,,,,,,,,,,,,,,,,,,,,,,,,,,,,,,,,,,,,,,,,,,,,,,,,,,,,,,,,,,,,,,,,,,,,,,,,,,,,
1606529662.617925,76.000000,0.000000,4228.589844,4207.692383,4230.256348,4247.820313,4204.743652,4207.436035,4211.538574,4207.051270,4212.948730,4211.794922,4218.077148,4233.717773,4216.410156,4217.563965,3478.000000,2.000000,,,,0.000000,4.000000,4.000000,4.000000,4.000000,4.000000,4.000000,4.000000,4.000000,4.000000,4.000000,4.000000,4.000000,4.000000,4.000000,100.000000,19.000000,0.000000,0.659435,-0.461670,-0.544678,-0.235229,0.966812,-0.373053,-0.026368,-32.449837,-121.873810,13.009842,,,,,,,,,,,,,,,,,,,,,,,,,,,,,,,,9.849364,2.203918,0.722920,0.747761,0.353535,6.032797,0.996492,0.833338,0.518519,0.429697,2.091423,1.149540,0.441980,0.379218,0.138755,1.121234,0.590193,0.445837,0.164359,0.242648,1.760076,0.494002,0.565006,1.157685,0.753823,1.666155,0.268482,0.149979,0.151481,0.184394,0.614415,0.186671,0.260254,0.171629,0.172165,2.284891,1.730853,0.510594,0.319926,0.228021,2.619396,0.533209,0.329291,0.345566,0.159821,2.121253,0.459497,0.341719,0.661545,0.353118,1.164399,0.969719,0.270251,0.376377,0.214430,2.088046,1.261031,0.262354,0.477888,0.158766,2.416285,0.684593,0.812635,0.510167,0.343644,2.866226,1.686860,0.607921,0.715088,0.315103
1606529662.625621,77.000000,0.000000,4225.769043,4201.922852,4227.948730,4245.384766,4207.436035,4210.000000,4214.230957,4214.358887,4201.922852,4197.179688,4216.666504,4231.922852,4202.820313,4219.230957,3343.000000,2.000000,,,,0.000000,4.000000,4.000000,4.000000,4.000000,4.000000,4.000000,4.000000,4.000000,4.000000,4.000000,4.000000,4.000000,4.000000,4.000000,100.000000,,,,,,,,,,,,,,,,,,,,,,,,,,,,,,,,,,,,,,,,,,,,,,,,,,,,,,,,,,,,,,,,,,,,,,,,,,,,,,,,,,,,,,,,,,,,,,,,,,,,,,,,,,,,,,,,,
1606529662.633317,78.000000,0.000000,4227.436035,4202.436035,4221.666504,4247.179688,4217.051270,4216.794922,4218.974121,4221.153809,4202.948730,4199.230957,4217.307617,4230.897461,4202.436035,4218.974121,3601.000000,2.000000,,,,0.000000,4.000000,4.000000,4.000000,4.000000,4.000000,4.000000,4.000000,4.000000,4.000000,4.000000,4.000000,4.000000,4.000000,4.000000,100.000000,,,,,,,,,,,,,,,,,,,,,,,,,,,,,,,,,,,,,,,,,,,,,,,,,,,,,,,,,,,,,,,,,,,,,,,,,,,,,,,,,,,,,,,,,,,,,,,,,,,,,,,,,,,,,,,,,
1606529662.640913,79.000000,0.000000,4218.717773,4199.487305,4214.358887,4244.230957,4209.230957,4209.871582,4215.128418,4209.615234,4204.230957,4198.589844,4206.538574,4222.307617,4200.256348,4209.743652,3464.000000,2.000000,,,,0.000000,4.000000,4.000000,4.000000,4.000000,4.000000,4.000000,4.000000,4.000000,4.000000,4.000000,4.000000,4.000000,4.000000,4.000000,100.000000,,,,,,,,,,,,,,,,,,,,,,,,,,,,,,,,,,,,,,,,,,,,,,,,,,,,,,,,,,,,,,,,,,,,,,,,,,,,,,,,,,,,,,,,,,,,,,,,,,,,,,,,,,,,,,,,,
1606529662.648609,80.000000,0.000000,4206.666504,4193.461426,4210.128418,4240.897461,4198.589844,4197.948730,4201.153809,4197.051270,4196.538574,4186.794922,4199.487305,4212.948730,4186.794922,4198.205078,3478.000000,2.000000,,,,0.000000,4.000000,4.000000,4.000000,4.000000,4.000000,4.000000,4.000000,4.000000,4.000000,4.000000,4.000000,4.000000,4.000000,4.000000,100.000000,20.000000,0.000000,0.657881,-0.466003,-0.541504,-0.238342,0.950210,-0.371588,-0.016114,-33.496605,-123.070114,12.411689,,,,,,,,,,,,,,,,,,,,,,,,,,,,,,,,,,,,,,,,,,,,,,,,,,,,,,,,,,,,,,,,,,,,,,,,,,,,,,,,,,,,,,,,,,,,,,,,,,,,,
1606529662.656305,81.000000,0.000000,4212.179688,4197.692383,4210.641113,4243.846191,4203.205078,4196.538574,4198.974121,4200.000000,4193.846191,4188.974121,4205.897461,4213.333496,4189.358887,4199.358887,3343.000000,2.000000,,,,0.000000,4.000000,4.000000,4.000000,4.000000,4.000000,4.000000,4.000000,4.000000,4.000000,4.000000,4.000000,4.000000,4.000000,4.000000,100.000000,,,,,,,,,,,,,,,,,,,,,,,,,,,,,,,,,,,,,,,,,,,,,,,,,,,,,,,,,,,,,,,,,,,,,,,,,,,,,,,,,,,,,,,,,,,,,,,,,,,,,,,,,,,,,,,,,
1606529662.664001,82.000000,0.000000,4219.358887,4202.436035,4217.051270,4249.743652,4205.128418,4201.922852,4206.153809,4211.153809,4208.333496,4204.230957,4208.205078,4217.820313,4201.025879,4210.384766,3601.000000,2.000000,,,,0.000000,4.000000,4.000000,4.000000,4.000000,4.000000,4.000000,4.000000,4.000000,4.000000,4.000000,4.000000,4.000000,4.000000,4.000000,100.000000,,,,,,,,,,,,,,,,,,,,,,,,,,,,,,,,,,,,,,,,,,,,,,,,,,,,,,,,,,,,,,,,,,,,,,,,,,,,,,,,,,,,,,,,,,,,,,,,,,,,,,,,,,,,,,,,,
1606529662.671597,83.000000,0.000000,4210.384766,4195.512695,4215.897461,4244.871582,4205.128418,4202.179688,4202.820313,4212.563965,4216.538574,4208.846191,4203.974121,4220.256348,4195.769043,4211.666504,3464.000000,2.000000,,,,0.000000,4.000000,4.000000,4.000000,4.000000,4.000000,4.000000,4.000000,4.000000,4.000000,4.000000,4.000000,4.000000,4.000000,4.000000,100.000000,,,,,,,,,,,,,,,,,,,,,,,,,,,,,,,,,,,,,,,,,,,,,,,,,,,,,,,,,,,,,,,,,,,,,,,,,,,,,,,,,,,,,,,,,,,,,,,,,,,,,,,,,,,,,,,,,
1606529662.679293,84.000000,0.000000,4210.384766,4195.384766,4213.717773,4239.871582,4217.051270,4201.025879,4205.000000,4211.794922,4213.461426,4211.282227,4211.666504,4229.615234,4195.897461,4213.717773,3478.000000,2.000000,,,,0.000000,4.000000,4.000000,4.000000,4.000000,4.000000,4.000000,4.000000,4.000000,4.000000,4.000000,4.000000,4.000000,4.000000,4.000000,100.000000,21.000000,0.000000,0.656792,-0.468567,-0.539856,-0.240051,0.954604,-0.376959,-0.020996,-32.449837,-121.425194,13.009842,,,,,,,,,,,,,,,,,,,,,,,,,,,,,,,,,,,,,,,,,,,,,,,,,,,,,,,,,,,,,,,,,,,,,,,,,,,,,,,,,,,,,,,,,,,,,,,,,,,,,
1606529662.686989,85.000000,0.000000,4224.487305,4203.974121,4224.102539,4246.922852,4218.205078,4200.641113,4215.256348,4217.563965,4217.948730,4219.871582,4225.128418,4244.358887,4212.948730,4225.512695,3343.000000,2.000000,,,,0.000000,4.000000,4.000000,4.000000,4.000000,4.000000,4.000000,4.000000,4.000000,4.000000,4.000000,4.000000,4.000000,4.000000,4.000000,100.000000,,,,,,,,,,,,,,,,,,,,,,,,,,,,,,,,,,,,,,,,,,,,,,,,,,,,,,,,,,,,,,,,,,,,,,,,,,,,,,,,,,,,,,,,,,,,,,,,,,,,,,,,,,,,,,,,,
1606529662.694685,86.000000,0.000000,4227.948730,4204.615234,4233.077148,4253.205078,4204.743652,4202.051270,4208.846191,4221.153809,4221.282227,4219.615234,4228.589844,4249.487305,4218.974121,4229.871582,3601.000000,2.000000,,,,0.000000,4.000000,4.000000,4.000000,4.000000,4.000000,4.000000,4.000000,4.000000,4.000000,4.000000,4.000000,4.000000,4.000000,4.000000,100.000000,,,,,,,,,,,,,,,,,,,,,,,,,,,,,,,,,,,,,,,,,,,,,,,,,,,,,,,,,,,,,,,,,,,,,,,,,,,,,,,,,,,,,,,,,,,,,,,,,,,,,,,,,,,,,,,,,
1606529662.702281,87.000000,0.000000,4222.179688,4200.256348,4229.615234,4254.615234,4200.128418,4202.563965,4198.717773,4216.538574,4215.256348,4212.692383,4228.846191,4245.897461,4214.743652,4226.666504,3464.000000,2.000000,,,,0.000000,4.000000,4.000000,4.000000,4.000000,4.000000,4.000000,4.000000,4.000000,4.000000,4.000000,4.000000,4.000000,4.000000,4.000000,100.000000,,,,,,,,,,,,,,,,,,,,,,,,,,,,,,,,,,,,,,,,,,,,,,,,,,,,,,,,,,,,,,,,,,,,,,,,,,,,,,,,,,,,,,,,,,,,,,,,,,,,,,,,,,,,,,,,,
1606529662.710177,88.000000,0.000000,4224.230957,4203.974121,4229.743652,4257.820313,4202.820313,4199.743652,4204.487305,4212.692383,4220.641113,4213.717773,4232.563965,4247.820313,4220.256348,4229.102539,3478.000000,2.000000,,,,0.000000,4.000000,4.000000,4.000000,4.000000,4.000000,4.000000,4.000000,4.000000,4.000000,4.000000,4.000000,4.000000,4.000000,4.000000,100.000000,22.000000,0.000000,0.656175,-0.469727,-0.539490,-0.240295,0.952651,-0.366217,-0.017090,-30.804913,-122.172882,11.813535,,,,,,,,,,,,,,,,,,,,,,,,,,,,,,,,,,,,,,,,,,,,,,,,,,,,,,,,,,,,,,,,,,,,,,,,,,,,,,,,,,,,,,,,,,,,,,,,,,,,,
1606529662.718072,89.000000,0.000000,4233.974121,4210.128418,4240.897461,4260.897461,4208.077148,4201.538574,4211.922852,4224.743652,4233.974121,4227.051270,4236.922852,4258.717773,4231.153809,4238.461426,3343.000000,2.000000,,,,0.000000,4.000000,4.000000,4.000000,4.000000,4.000000,4.000000,4.000000,4.000000,4.000000,4.000000,4.000000,4.000000,4.000000,4.000000,100.000000,,,,,,,,,,,,,,,,,,,,,,,,,,,,,,,,,,,,,,,,,,,,,,,,,,,,,,,,,,,,,,,,,,,,,,,,,,,,,,,,,,,,,,,,,,,,,,,,,,,,,,,,,,,,,,,,,
1606529662.725768,90.000000,0.000000,4233.205078,4207.563965,4243.974121,4262.948730,4217.307617,4206.794922,4214.358887,4237.563965,4233.333496,4231.794922,4235.128418,4259.743652,4230.769043,4240.641113,3601.000000,2.000000,,,,0.000000,4.000000,4.000000,4.000000,4.000000,4.000000,4.000000,4.000000,4.000000,4.000000,4.000000,4.000000,4.000000,4.000000,4.000000,100.000000,,,,,,,,,,,,,,,,,,,,,,,,,,,,,,,,,,,,,,,,,,,,,,,,,,,,,,,,,,,,,,,,,,,,,,,,,,,,,,,,,,,,,,,,,,,,,,,,,,,,,,,,,,,,,,,,,
1606529662.733364,91.000000,0.000000,4220.000000,4202.436035,4234.230957,4258.846191,4219.743652,4204.230957,4211.922852,4223.205078,4228.333496,4221.282227,4228.974121,4248.717773,4220.000000,4234.487305,3464.000000,2.000000,,,,0.000000,4.000000,4.000000,4.000000,4.000000,4.000000,4.000000,4.000000,4.000000,4.000000,4.000000,4.000000,4.000000,4.000000,4.000000,100.000000,,,,,,,,,,,,,,,,,,,,,,,,,,,,,,,,,,,,,,,,,,,,,,,,,,,,,,,,,,,,,,,,,,,,,,,,,,,,,,,,,,,,,,,,,,,,,,,,,,,,,,,,,,,,,,,,,
1606529662.741060,92.000000,0.000000,4217.692383,4199.230957,4229.743652,4246.922852,4215.512695,4198.974121,4203.205078,4203.589844,4231.282227,4221.922852,4228.333496,4244.230957,4214.615234,4229.615234,3478.000000,2.000000,,,,0.000000,4.000000,4.000000,4.000000,4.000000,4.000000,4.000000,4.000000,4.000000,4.000000,4.000000,4.000000,4.000000,4.000000,4.000000,100.000000,23.000000,0.000000,0.655853,-0.470154,-0.539673,-0.239929,0.937026,-0.380865,-0.027344,-32.898453,-122.621498,13.757534,,,,,,,,,,,,,,,,,,,,,,,,,,,,,,,,7.554420,2.178601,0.812180,0.863715,0.362686,5.338102,1.131120,0.875684,0.538097,0.487211,1.911651,1.190296,0.568195,0.366163,0.132316,0.892271,0.566616,0.449030,0.191272,0.249218,1.345911,0.535896,0.524760,0.971667,0.750782,1.394825,0.275575,0.145001,0.164024,0.201463,0.602387,0.187309,0.255132,0.174003,0.186850,1.846708,1.576870,0.599296,0.315114,0.257190,2.315986,0.646107,0.302663,0.373699,0.166522,2.245826,0.441867,0.260951,0.672157,0.347592,1.241328,0.837334,0.234878,0.410178,0.210529,1.862933,1.174425,0.298806,0.488860,0.156757,2.066925,0.588653,0.600249,0.535009,0.293334,2.305968,1.480305,0.669713,0.698824,0.311945
1606529662.748756,93.000000,0.000000,4227.820313,4200.256348,4232.820313,4247.820313,4217.563965,4202.563965,4202.179688,4209.615234,4230.641113,4233.077148,4230.384766,4247.179688,4218.077148,4228.589844,3343.000000,2.000000,,,,0.000000,4.000000,4.000000,4.000000,4.000000,4.000000,4.000000,4.000000,4.000000,4.000000,4.000000,4.000000,4.000000,4.000000,4.000000,100.000000,,,,,,,,,,,,,,,,,,,,,,,,,,,,,,,,,,,,,,,,,,,,,,,,,,,,,,,,,,,,,,,,,,,,,,,,,,,,,,,,,,,,,,,,,,,,,,,,,,,,,,,,,,,,,,,,,
1606529662.756452,94.000000,0.000000,4230.128418,4210.512695,4232.563965,4263.846191,4221.794922,4207.051270,4206.794922,4217.563965,4226.666504,4234.102539,4230.897461,4249.102539,4219.487305,4230.256348,3601.000000,2.000000,,,,0.000000,4.000000,4.000000,4.000000,4.000000,4.000000,4.000000,4.000000,4.000000,4.000000,4.000000,4.000000,4.000000,4.000000,4.000000,100.000000,,,,,,,,,,,,,,,,,,,,,,,,,,,,,,,,,,,,,,,,,,,,,,,,,,,,,,,,,,,,,,,,,,,,,,,,,,,,,,,,,,,,,,,,,,,,,,,,,,,,,,,,,,,,,,,,,
1606529662.764248,95.000000,0.000000,4227.820313,4212.948730,4230.897461,4267.820313,4212.820313,4203.333496,4201.025879,4207.307617,4227.307617,4230.384766,4230.897461,4248.461426,4216.794922,4232.051270,3464.000000,2.000000,,,,0.000000,4.000000,4.000000,4.000000,4.000000,4.000000,4.000000,4.000000,4.000000,4.000000,4.000000,4.000000,4.000000,4.000000,4.000000,100.000000,,,,,,,,,,,,,,,,,,,,,,,,,,,,,,,,,,,,,,,,,,,,,,,,,,,,,,,,,,,,,,,,,,,,,,,,,,,,,,,,,,,,,,,,,,,,,,,,,,,,,,,,,,,,,,,,,
1606529662.771944,96.000000,0.000000,4229.102539,4203.333496,4232.820313,4261.794922,4206.538574,4200.384766,4202.179688,4207.307617,4224.743652,4230.128418,4230.897461,4248.974121,4217.692383,4233.077148,3478.000000,2.000000,,,,0.000000,4.000000,4.000000,4.000000,4.000000,4.000000,4.000000,4.000000,4.000000,4.000000,4.000000,4.000000,4.000000,4.000000,4.000000,100.000000,24.000000,0.000000,0.655589,-0.470459,-0.539917,-0.239502,0.947280,-0.385748,-0.029297,-31.851683,-122.023346,12.710765,,,,,,,,,,,,,,,,,,,,,,,,,,,,,,,,,,,,,,,,,,,,,,,,,,,,,,,,,,,,,,,,,,,,,,,,,,,,,,,,,,,,,,,,,,,,,,,,,,,,,
1606529662.779640,97.000000,0.000000,4224.871582,4202.820313,4233.461426,4261.282227,4214.615234,4202.051270,4213.461426,4214.358887,4211.282227,4223.077148,4229.358887,4249.487305,4219.487305,4231.410156,3343.000000,2.000000,,,,0.000000,4.000000,4.000000,4.000000,4.000000,4.000000,4.000000,4.000000,4.000000,4.000000,4.000000,4.000000,4.000000,4.000000,4.000000,100.000000,,,,,,,,,,,,,,,,,,,,,,,,,,,,,,,,,,,,,,,,,,,,,,,,,,,,,,,,,,,,,,,,,,,,,,,,,,,,,,,,,,,,,,,,,,,,,,,,,,,,,,,,,,,,,,,,,
1606529662.787335,98.000000,0.000000,4220.641113,4212.051270,4231.794922,4262.820313,4221.282227,4203.461426,4210.897461,4207.307617,4203.589844,4212.051270,4228.589844,4249.487305,4219.230957,4230.769043,3601.000000,2.000000,,,,0.000000,4.000000,4.000000,4.000000,4.000000,4.000000,4.000000,4.000000,4.000000,4.000000,4.000000,4.000000,4.000000,4.000000,4.000000,100.000000,,,,,,,,,,,,,,,,,,,,,,,,,,,,,,,,,,,,,,,,,,,,,,,,,,,,,,,,,,,,,,,,,,,,,,,,,,,,,,,,,,,,,,,,,,,,,,,,,,,,,,,,,,,,,,,,,
1606529662.794931,99.000000,0.000000,4227.179688,4213.205078,4234.230957,4263.846191,4219.871582,4205.256348,4202.307617,4206.794922,4212.692383,4215.384766,4230.897461,4247.820313,4221.282227,4234.230957,3464.000000,2.000000,,,,0.000000,4.000000,4.000000,4.000000,4.000000,4.000000,4.000000,4.000000,4.000000,4.000000,4.000000,4.000000,4.000000,4.000000,4.000000,100.000000,,,,,,,,,,,,,,,,,,,,,,,,,,,,,,,,,,,,,,,,,,,,,,,,,,,,,,,,,,,,,,,,,,,,,,,,,,,,,,,,,,,,,,,,,,,,,,,,,,,,,,,,,,,,,,,,,
1606529662.802627,100.000000,0.000000,4231.794922,4208.077148,4239.358887,4266.666504,4215.512695,4203.717773,4201.025879,4216.025879,4221.410156,4224.871582,4229.358887,4250.384766,4221.025879,4236.153809,3478.000000,2.000000,,,,0.000000,4.000000,4.000000,4.000000,4.000000,4.000000,4.000000,4.000000,4.000000,4.000000,4.000000,4.000000,4.000000,4.000000,4.000000,100.000000,25.000000,0.000000,0.655321,-0.470886,-0.539978,-0.239258,0.945327,-0.381842,-0.029786,-31.702145,-121.873810,12.561227,,,,,,,,,,,,,,,,,,,,,,,,,,,,,,,,,,,,,,,,,,,,,,,,,,,,,,,,,,,,,,,,,,,,,,,,,,,,,,,,,,,,,,,,,,,,,,,,,,,,,
1606529662.810523,101.000000,0.000000,4232.436035,4206.153809,4238.077148,4266.922852,4212.820313,4199.230957,4201.666504,4212.692383,4217.307617,4223.205078,4227.692383,4248.974121,4217.436035,4232.436035,3343.000000,2.000000,,,,0.000000,4.000000,4.000000,4.000000,4.000000,4.000000,4.000000,4.000000,4.000000,4.000000,4.000000,4.000000,4.000000,4.000000,4.000000,100.000000,,,,,,,,,,,,,,,,,,,,,,,,,,,,,,,,,,,,,,,,,,,,,,,,,,,,,,,,,,,,,,,,,,,,,,,,,,,,,,,,,,,,,,,,,,,,,,,,,,,,,,,,,,,,,,,,,
1606529662.818219,102.000000,0.000000,4232.051270,4205.641113,4233.461426,4265.128418,4219.871582,4201.666504,4205.641113,4215.128418,4214.743652,4215.769043,4227.179688,4239.615234,4216.153809,4224.615234,3601.000000,2.000000,,,,0.000000,4.000000,4.000000,4.000000,4.000000,4.000000,4.000000,4.000000,4.000000,4.000000,4.000000,4.000000,4.000000,4.000000,4.000000,100.000000,,,,,,,,,,,,,,,,,,,,,,,,,,,,,,,,,,,,,,,,,,,,,,,,,,,,,,,,,,,,,,,,,,,,,,,,,,,,,,,,,,,,,,,,,,,,,,,,,,,,,,,,,,,,,,,,,
1606529662.826015,103.000000,0.000000,4223.333496,4203.846191,4231.410156,4261.410156,4220.897461,4204.487305,4209.615234,4223.846191,4221.410156,4214.871582,4223.205078,4235.512695,4214.743652,4217.051270,3464.000000,2.000000,,,,0.000000,4.000000,4.000000,4.000000,4.000000,4.000000,4.000000,4.000000,4.000000,4.000000,4.000000,4.000000,4.000000,4.000000,4.000000,100.000000,,,,,,,,,,,,,,,,,,,,,,,,,,,,,,,,,,,,,,,,,,,,,,,,,,,,,,,,,,,,,,,,,,,,,,,,,,,,,,,,,,,,,,,,,,,,,,,,,,,,,,,,,,,,,,,,,
1606529662.833911,104.000000,0.000000,4216.025879,4200.641113,4232.563965,4258.974121,4203.589844,4198.974121,4201.153809,4206.922852,4217.563965,4217.563965,4220.897461,4240.384766,4213.846191,4216.282227,3478.000000,2.000000,,,,0.000000,4.000000,4.000000,4.000000,4.000000,4.000000,4.000000,4.000000,4.000000,4.000000,4.000000,4.000000,4.000000,4.000000,4.000000,100.000000,26.000000,0.000000,0.654831,-0.471924,-0.539612,-0.239380,0.944350,-0.365728,-0.028321,-33.496605,-122.322426,11.963073,,,,,,,,,,,,,,,,,,,,,,,,,,,,,,,,,,,,,,,,,,,,,,,,,,,,,,,,,,,,,,,,,,,,,,,,,,,,,,,,,,,,,,,,,,,,,,,,,,,,,
1606529662.841806,105.000000,0.000000,4221.666504,4201.410156,4237.948730,4263.974121,4197.563965,4195.897461,4196.153809,4188.077148,4206.282227,4217.307617,4223.846191,4246.794922,4218.077148,4225.512695,3343.000000,2.000000,,,,0.000000,4.000000,4.000000,4.000000,4.000000,4.000000,4.000000,4.000000,4.000000,4.000000,4.000000,4.000000,4.000000,4.000000,4.000000,100.000000,,,,,,,,,,,,,,,,,,,,,,,,,,,,,,,,,,,,,,,,,,,,,,,,,,,,,,,,,,,,,,,,,,,,,,,,,,,,,,,,,,,,,,,,,,,,,,,,,,,,,,,,,,,,,,,,,
1606529662.849702,106.000000,0.000000,4226.538574,4203.205078,4239.230957,4261.410156,4213.077148,4200.128418,4204.871582,4197.948730,4206.666504,4214.487305,4218.589844,4242.436035,4217.948730,4232.563965,3601.000000,2.000000,,,,0.000000,4.000000,4.000000,4.000000,4.000000,4.000000,4.000000,4.000000,4.000000,4.000000,4.000000,4.000000,4.000000,4.000000,4.000000,100.000000,,,,,,,,,,,,,,,,,,,,,,,,,,,,,,,,,,,,,,,,,,,,,,,,,,,,,,,,,,,,,,,,,,,,,,,,,,,,,,,,,,,,,,,,,,,,,,,,,,,,,,,,,,,,,,,,,
1606529662.857298,107.000000,0.000000,4228.974121,4200.769043,4234.358887,4252.692383,4221.282227,4202.692383,4200.897461,4207.179688,4215.769043,4216.025879,4212.948730,4236.538574,4213.717773,4229.102539,3464.000000,2.000000,,,,0.000000,4.000000,4.000000,4.000000,4.000000,4.000000,4.000000,4.000000,4.000000,4.000000,4.000000,4.000000,4.000000,4.000000,4.000000,100.000000,,,,,,,,,,,,,,,,,,,,,,,,,,,,,,,,,,,,,,,,,,,,,,,,,,,,,,,,,,,,,,,,,,,,,,,,,,,,,,,,,,,,,,,,,,,,,,,,,,,,,,,,,,,,,,,,,
1606529662.864994,108.000000,0.000000,4231.025879,4201.410156,4234.230957,4256.538574,4217.051270,4199.871582,4187.307617,4196.410156,4215.512695,4218.717773,4219.230957,4237.820313,4216.922852,4224.743652,3478.000000,2.000000,,,,0.000000,4.000000,4.000000,4.000000,4.000000,4.000000,4.000000,4.000000,4.000000,4.000000,4.000000,4.000000,4.000000,4.000000,4.000000,100.000000,27.000000,0.000000,0.654609,-0.472534,-0.539185,-0.239746,0.946792,-0.381842,-0.049805,-33.047989,-121.574730,10.916305,,,,,,,,,,,,,,,,,,,,,,,,,,,,,,,,5.869518,2.095330,0.807714,0.969000,0.371700,4.618955,1.175462,0.855415,0.575816,0.516140,1.734313,1.216505,0.661121,0.351781,0.130741,0.726079,0.527760,0.444479,0.232985,0.246789,0.934467,0.542808,0.461302,0.820555,0.716317,1.201941,0.310092,0.140697,0.197197,0.214575,0.600836,0.209150,0.258528,0.178084,0.199861,1.385766,1.392274,0.711846,0.328850,0.287048,2.005322,0.825287,0.285630,0.413127,0.183602,2.322492,0.453479,0.193861,0.686327,0.354505,1.313185,0.675602,0.205648,0.477569,0.215251,1.627889,1.026497,0.315093,0.526556,0.155928,1.940613,0.473865,0.441805,0.608932,0.268394,1.956723,1.223187,0.669456,0.710607,0.301468
1606529662.872690,109.000000,0.000000,4220.641113,4201.538574,4233.333496,4256.666504,4214.358887,4190.897461,4186.153809,4188.589844,4200.512695,4207.307617,4218.846191,4238.717773,4218.077148,4226.025879,3343.000000,2.000000,,,,0.000000,4.000000,4.000000,4.000000,4.000000,4.000000,4.000000,4.000000,4.000000,4.000000,4.000000,4.000000,4.000000,4.000000,4.000000,100.000000,,,,,,,,,,,,,,,,,,,,,,,,,,,,,,,,,,,,,,,,,,,,,,,,,,,,,,,,,,,,,,,,,,,,,,,,,,,,,,,,,,,,,,,,,,,,,,,,,,,,,,,,,,,,,,,,,
1606529662.880386,110.000000,0.000000,4211.794922,4197.051270,4227.692383,4244.615234,4217.179688,4182.563965,4189.102539,4192.948730,4191.025879,4194.487305,4211.025879,4239.102539,4211.794922,4227.692383,3601.000000,2.000000,,,,0.000000,4.000000,4.000000,4.000000,4.000000,4.000000,4.000000,4.000000,4.000000,4.000000,4.000000,4.000000,4.000000,4.000000,4.000000,100.000000,,,,,,,,,,,,,,,,,,,,,,,,,,,,,,,,,,,,,,,,,,,,,,,,,,,,,,,,,,,,,,,,,,,,,,,,,,,,,,,,,,,,,,,,,,,,,,,,,,,,,,,,,,,,,,,,,
1606529662.887982,111.000000,0.000000,4227.179688,4201.794922,4235.897461,4251.153809,4219.743652,4189.871582,4192.307617,4199.487305,4202.436035,4208.205078,4215.897461,4246.153809,4214.102539,4231.025879,3464.000000,2.000000,,,,0.000000,4.000000,4.000000,4.000000,4.000000,4.000000,4.000000,4.000000,4.000000,4.000000,4.000000,4.000000,4.000000,4.000000,4.000000,100.000000,,,,,,,,,,,,,,,,,,,,,,,,,,,,,,,,,,,,,,,,,,,,,,,,,,,,,,,,,,,,,,,,,,,,,,,,,,,,,,,,,,,,,,,,,,,,,,,,,,,,,,,,,,,,,,,,,
1606529662.895678,112.000000,0.000000,4241.794922,4210.256348,4245.384766,4267.436035,4216.025879,4198.974121,4201.666504,4207.307617,4216.666504,4223.846191,4222.051270,4249.615234,4221.153809,4230.384766,3478.000000,2.000000,,,,0.000000,4.000000,4.000000,4.000000,4.000000,4.000000,4.000000,4.000000,4.000000,4.000000,4.000000,4.000000,4.000000,4.000000,4.000000,100.000000,28.000000,0.000000,0.654175,-0.473328,-0.538879,-0.240051,0.941421,-0.373053,-0.035157,-32.898453,-122.920578,13.009842,,,,,,,,,,,,,,,,,,,,,,,,,,,,,,,,,,,,,,,,,,,,,,,,,,,,,,,,,,,,,,,,,,,,,,,,,,,,,,,,,,,,,,,,,,,,,,,,,,,,,
1606529662.903374,113.000000,0.000000,4229.358887,4206.282227,4232.692383,4261.153809,4210.000000,4190.769043,4198.846191,4205.128418,4213.846191,4215.128418,4216.153809,4237.820313,4214.743652,4221.025879,3343.000000,2.000000,,,,0.000000,4.000000,4.000000,4.000000,4.000000,4.000000,4.000000,4.000000,4.000000,4.000000,4.000000,4.000000,4.000000,4.000000,4.000000,100.000000,,,,,,,,,,,,,,,,,,,,,,,,,,,,,,,,,,,,,,,,,,,,,,,,,,,,,,,,,,,,,,,,,,,,,,,,,,,,,,,,,,,,,,,,,,,,,,,,,,,,,,,,,,,,,,,,,
1606529662.911069,114.000000,0.000000,4215.000000,4197.820313,4220.384766,4248.717773,4209.102539,4181.538574,4186.666504,4201.025879,4209.230957,4203.461426,4212.692383,4228.461426,4202.563965,4211.666504,3601.000000,2.000000,,,,0.000000,4.000000,4.000000,4.000000,4.000000,4.000000,4.000000,4.000000,4.000000,4.000000,4.000000,4.000000,4.000000,4.000000,4.000000,100.000000,,,,,,,,,,,,,,,,,,,,,,,,,,,,,,,,,,,,,,,,,,,,,,,,,,,,,,,,,,,,,,,,,,,,,,,,,,,,,,,,,,,,,,,,,,,,,,,,,,,,,,,,,,,,,,,,,
1606529662.918665,115.000000,0.000000,4213.205078,4193.589844,4224.743652,4249.230957,4208.205078,4184.358887,4190.384766,4207.179688,4215.128418,4208.461426,4212.948730,4228.461426,4200.000000,4209.743652,3464.000000,2.000000,,,,0.000000,4.000000,4.000000,4.000000,4.000000,4.000000,4.000000,4.000000,4.000000,4.000000,4.000000,4.000000,4.000000,4.000000,4.000000,100.000000,,,,,,,,,,,,,,,,,,,,,,,,,,,,,,,,,,,,,,,,,,,,,,,,,,,,,,,,,,,,,,,,,,,,,,,,,,,,,,,,,,,,,,,,,,,,,,,,,,,,,,,,,,,,,,,,,
1606529662.926361,116.000000,0.000000,4214.487305,4194.230957,4232.051270,4255.128418,4210.897461,4188.974121,4198.077148,4211.666504,4220.897461,4223.846191,4214.487305,4237.179688,4210.000000,4218.077148,3478.000000,2.000000,,,,0.000000,4.000000,4.000000,4.000000,4.000000,4.000000,4.000000,4.000000,4.000000,4.000000,4.000000,4.000000,4.000000,4.000000,4.000000,100.000000,29.000000,0.000000,0.654005,-0.473633,-0.538818,-0.240051,0.946303,-0.367681,-0.020996,-32.599373,-122.322426,10.916305,,,,,,,,,,,,,,,,,,,,,,,,,,,,,,,,,,,,,,,,,,,,,,,,,,,,,,,,,,,,,,,,,,,,,,,,,,,,,,,,,,,,,,,,,,,,,,,,,,,,,
1606529662.934057,117.000000,0.000000,4220.000000,4197.307617,4232.179688,4260.128418,4214.871582,4188.846191,4195.512695,4201.282227,4217.563965,4230.128418,4225.384766,4245.512695,4221.666504,4221.666504,3343.000000,2.000000,,,,0.000000,4.000000,4.000000,4.000000,4.000000,4.000000,4.000000,4.000000,4.000000,4.000000,4.000000,4.000000,4.000000,4.000000,4.000000,100.000000,,,,,,,,,,,,,,,,,,,,,,,,,,,,,,,,,,,,,,,,,,,,,,,,,,,,,,,,,,,,,,,,,,,,,,,,,,,,,,,,,,,,,,,,,,,,,,,,,,,,,,,,,,,,,,,,,
1606529662.941853,118.000000,0.000000,4227.563965,4203.846191,4233.974121,4263.461426,4213.205078,4191.922852,4195.897461,4195.384766,4210.384766,4223.205078,4233.461426,4245.897461,4224.871582,4217.563965,3601.000000,2.000000,,,,0.000000,4.000000,4.000000,4.000000,4.000000,4.000000,4.000000,4.000000,4.000000,4.000000,4.000000,4.000000,4.000000,4.000000,4.000000,100.000000,,,,,,,,,,,,,,,,,,,,,,,,,,,,,,,,,,,,,,,,,,,,,,,,,,,,,,,,,,,,,,,,,,,,,,,,,,,,,,,,,,,,,,,,,,,,,,,,,,,,,,,,,,,,,,,,,
1606529662.949549,119.000000,0.000000,4231.025879,4209.615234,4243.205078,4266.282227,4218.205078,4199.871582,4202.436035,4211.666504,4220.512695,4228.077148,4233.205078,4253.205078,4226.922852,4224.615234,3464.000000,2.000000,,,,0.000000,4.000000,4.000000,4.000000,4.000000,4.000000,4.000000,4.000000,4.000000,4.000000,4.000000,4.000000,4.000000,4.000000,4.000000,100.000000,,,,,,,,,,,,,,,,,,,,,,,,,,,,,,,,,,,,,,,,,,,,,,,,,,,,,,,,,,,,,,,,,,,,,,,,,,,,,,,,,,,,,,,,,,,,,,,,,,,,,,,,,,,,,,,,,
1606529662.957245,120.000000,0.000000,4231.410156,4207.692383,4247.051270,4264.615234,4225.000000,4203.333496,4206.538574,4225.256348,4238.461426,4246.410156,4237.179688,4260.000000,4233.846191,4233.205078,3478.000000,2.000000,,,,0.000000,4.000000,4.000000,4.000000,4.000000,4.000000,4.000000,4.000000,4.000000,4.000000,4.000000,4.000000,4.000000,4.000000,4.000000,100.000000,30.000000,0.000000,0.653970,-0.473450,-0.539185,-0.239685,0.949233,-0.349126,-0.044434,-32.300297,-121.275658,12.710765,,,,,,,,,,,,,,,,,,,,,,,,,,,,,,,,,,,,,,,,,,,,,,,,,,,,,,,,,,,,,,,,,,,,,,,,,,,,,,,,,,,,,,,,,,,,,,,,,,,,,
1606529662.965141,121.000000,0.000000,4229.358887,4203.589844,4239.230957,4262.051270,4221.025879,4202.948730,4203.333496,4219.871582,4233.461426,4246.666504,4237.051270,4253.717773,4231.153809,4224.358887,3343.000000,2.000000,,,,0.000000,4.000000,4.000000,4.000000,4.000000,4.000000,4.000000,4.000000,4.000000,4.000000,4.000000,4.000000,4.000000,4.000000,4.000000,100.000000,,,,,,,,,,,,,,,,,,,,,,,,,,,,,,,,,,,,,,,,,,,,,,,,,,,,,,,,,,,,,,,,,,,,,,,,,,,,,,,,,,,,,,,,,,,,,,,,,,,,,,,,,,,,,,,,,
1606529662.972837,122.000000,0.000000,4223.974121,4198.589844,4230.384766,4258.717773,4216.538574,4196.666504,4195.512695,4213.077148,4218.974121,4226.538574,4221.153809,4240.000000,4218.077148,4211.794922,3601.000000,2.000000,,,,0.000000,4.000000,4.000000,4.000000,4.000000,4.000000,4.000000,4.000000,4.000000,4.000000,4.000000,4.000000,4.000000,4.000000,4.000000,100.000000,,,,,,,,,,,,,,,,,,,,,,,,,,,,,,,,,,,,,,,,,,,,,,,,,,,,,,,,,,,,,,,,,,,,,,,,,,,,,,,,,,,,,,,,,,,,,,,,,,,,,,,,,,,,,,,,,
1606529662.980433,123.000000,0.000000,4217.436035,4190.897461,4227.948730,4251.922852,4215.512695,4187.436035,4195.512695,4215.000000,4212.563965,4213.461426,4211.794922,4232.307617,4211.922852,4212.563965,3464.000000,2.000000,,,,0.000000,4.000000,4.000000,4.000000,4.000000,4.000000,4.000000,4.000000,4.000000,4.000000,4.000000,4.000000,4.000000,4.000000,4.000000,100.000000,,,,,,,,,,,,,,,,,,,,,,,,,,,,,,,,,,,,,,,,,,,,,,,,,,,,,,,,,,,,,,,,,,,,,,,,,,,,,,,,,,,,,,,,,,,,,,,,,,,,,,,,,,,,,,,,,
1606529662.988128,124.000000,0.000000,4218.846191,4190.897461,4229.743652,4252.436035,4213.974121,4189.871582,4201.538574,4209.487305,4204.743652,4216.025879,4224.230957,4237.307617,4218.333496,4218.205078,3478.000000,2.000000,,,,0.000000,4.000000,4.000000,4.000000,4.000000,4.000000,4.000000,4.000000,4.000000,4.000000,4.000000,4.000000,4.000000,4.000000,4.000000,100.000000,31.000000,0.000000,0.654136,-0.472778,-0.539978,-0.238770,0.937514,-0.378912,-0.046876,-34.094757,-121.425194,10.617228,,,,,,,,,,,,,,,,,,,,,,,,,,,,,,,,4.631345,1.963459,0.712985,1.045796,0.382492,3.843295,1.114711,0.772779,0.623392,0.511200,1.551517,1.215081,0.686256,0.344321,0.135914,0.614091,0.475339,0.424587,0.281771,0.241955,0.603127,0.510807,0.400497,0.715155,0.654426,1.126170,0.366609,0.139883,0.248594,0.222816,0.603292,0.249647,0.260479,0.186797,0.206933,0.994642,1.233885,0.803161,0.363517,0.317009,1.773944,1.074809,0.284037,0.465455,0.209964,2.327600,0.508897,0.173911,0.711436,0.370321,1.374729,0.535551,0.199424,0.574573,0.224524,1.415525,0.883510,0.311179,0.591259,0.157714,1.955961,0.387514,0.367443,0.731889,0.268130,1.792138,0.984864,0.602064,0.762154,0.288870
1606529662.995824,125.000000,0.000000,4226.666504,4203.461426,4231.282227,4261.666504,4217.436035,4200.384766,4196.025879,4196.153809,4206.153809,4223.333496,4232.563965,4245.256348,4227.436035,4221.153809,3343.000000,2.000000,,,,0.000000,4.000000,4.000000,4.000000,4.000000,4.000000,4.000000,4.000000,4.000000,4.000000,4.000000,4.000000,4.000000,4.000000,4.000000,100.000000,,,,,,,,,,,,,,,,,,,,,,,,,,,,,,,,,,,,,,,,,,,,,,,,,,,,,,,,,,,,,,,,,,,,,,,,,,,,,,,,,,,,,,,,,,,,,,,,,,,,,,,,,,,,,,,,,
1606529663.003520,126.000000,0.000000,4227.563965,4206.794922,4228.717773,4262.563965,4222.692383,4200.128418,4191.922852,4198.333496,4215.128418,4222.436035,4219.743652,4240.384766,4224.615234,4218.461426,3601.000000,2.000000,,,,0.000000,4.000000,4.000000,4.000000,4.000000,4.000000,4.000000,4.000000,4.000000,4.000000,4.000000,4.000000,4.000000,4.000000,4.000000,100.000000,,,,,,,,,,,,,,,,,,,,,,,,,,,,,,,,,,,,,,,,,,,,,,,,,,,,,,,,,,,,,,,,,,,,,,,,,,,,,,,,,,,,,,,,,,,,,,,,,,,,,,,,,,,,,,,,,
1606529663.011116,127.000000,0.000000,4220.512695,4199.102539,4226.025879,4259.230957,4212.692383,4196.794922,4199.487305,4203.717773,4207.179688,4214.230957,4203.846191,4231.153809,4211.153809,4213.205078,50.000000,2.000000,,,,0.000000,4.000000,4.000000,4.000000,4.000000,4.000000,4.000000,4.000000,4.000000,4.000000,4.000000,4.000000,4.000000,4.000000,4.000000,100.000000,,,,,,,,,,,,,,,,,,,,,,,,,,,,,,,,,,,,,,,,,,,,,,,,,,,,,,,,,,,,,,,,,,,,,,,,,,,,,,,,,,,,,,,,,,,,,,,,,,,,,,,,,,,,,,,,,
1606529663.019012,0.000000,0.000000,4218.717773,4197.563965,4227.820313,4258.205078,4201.538574,4199.871582,4201.410156,4199.102539,4196.410156,4210.128418,4202.692383,4233.461426,4205.256348,4213.974121,3453.000000,2.000000,,,,0.000000,4.000000,4.000000,4.000000,4.000000,4.000000,4.000000,4.000000,4.000000,4.000000,4.000000,4.000000,4.000000,4.000000,4.000000,100.000000,0.000000,0.000000,0.654095,-0.473145,-0.539734,-0.238708,0.935073,-0.418463,-0.020020,-34.244297,-121.275658,11.963073,,,,,,,,,,,,,,,,,,,,,,,,,,,,,,,,,,,,,,,,,,,,,,,,,,,,,,,,,,,,,,,,,,,,,,,,,,,,,,,,,,,,,,,,,,,,,,,,,,,,,
1606529663.026708,1.000000,0.000000,4220.641113,4201.794922,4229.487305,4251.794922,4211.538574,4199.615234,4197.436035,4199.743652,4201.410156,4212.948730,4207.948730,4235.000000,4213.205078,4216.794922,3467.000000,2.000000,,,,0.000000,4.000000,4.000000,4.000000,4.000000,4.000000,4.000000,4.000000,4.000000,4.000000,4.000000,4.000000,4.000000,4.000000,4.000000,100.000000,,,,,,,,,,,,,,,,,,,,,,,,,,,,,,,,,,,,,,,,,,,,,,,,,,,,,,,,,,,,,,,,,,,,,,,,,,,,,,,,,,,,,,,,,,,,,,,,,,,,,,,,,,,,,,,,,
1606529663.034404,2.000000,0.000000,4218.205078,4201.282227,4228.974121,4246.153809,4218.077148,4198.461426,4201.410156,4207.820313,4205.641113,4212.179688,4208.205078,4232.179688,4213.974121,4212.563965,3578.000000,2.000000,,,,0.000000,4.000000,4.000000,4.000000,4.000000,4.000000,4.000000,4.000000,4.000000,4.000000,4.000000,4.000000,4.000000,4.000000,4.000000,100.000000,,,,,,,,,,,,,,,,,,,,,,,,,,,,,,,,,,,,,,,,,,,,,,,,,,,,,,,,,,,,,,,,,,,,,,,,,,,,,,,,,,,,,,,,,,,,,,,,,,,,,,,,,,,,,,,,,
1606529663.042399,3.000000,0.000000,4213.589844,4190.897461,4222.307617,4246.410156,4207.948730,4199.871582,4203.205078,4205.512695,4200.641113,4207.692383,4202.307617,4229.358887,4202.436035,4201.410156,3568.000000,2.000000,,,,0.000000,4.000000,4.000000,4.000000,4.000000,4.000000,4.000000,4.000000,4.000000,4.000000,4.000000,4.000000,4.000000,4.000000,4.000000,100.000000,,,,,,,,,,,,,,,,,,,,,,,,,,,,,,,,,,,,,,,,,,,,,,,,,,,,,,,,,,,,,,,,,,,,,,,,,,,,,,,,,,,,,,,,,,,,,,,,,,,,,,,,,,,,,,,,,
1606529663.050295,4.000000,0.000000,4215.897461,4188.333496,4215.256348,4246.538574,4207.179688,4197.436035,4197.051270,4197.051270,4200.128418,4210.000000,4198.205078,4227.179688,4200.512695,4196.794922,3663.000000,2.000000,,,,0.000000,4.000000,4.000000,4.000000,4.000000,4.000000,4.000000,4.000000,4.000000,4.000000,4.000000,4.000000,4.000000,4.000000,4.000000,100.000000,1.000000,0.000000,0.653029,-0.476685,-0.536377,-0.242126,0.943374,-0.405280,-0.007813,-32.898453,-122.621498,13.009842,,,,,,,,,,,,,,,,,,,,,,,,,,,,,,,,,,,,,,,,,,,,,,,,,,,,,,,,,,,,,,,,,,,,,,,,,,,,,,,,,,,,,,,,,,,,,,,,,,,,,
1606529663.058191,5.000000,0.000000,4224.615234,4200.641113,4217.948730,4251.153809,4217.307617,4203.974121,4198.205078,4202.948730,4208.846191,4216.666504,4206.666504,4230.897461,4213.974121,4206.538574,3247.000000,2.000000,,,,0.000000,4.000000,4.000000,4.000000,4.000000,4.000000,4.000000,4.000000,4.000000,4.000000,4.000000,4.000000,4.000000,4.000000,4.000000,100.000000,,,,,,,,,,,,,,,,,,,,,,,,,,,,,,,,,,,,,,,,,,,,,,,,,,,,,,,,,,,,,,,,,,,,,,,,,,,,,,,,,,,,,,,,,,,,,,,,,,,,,,,,,,,,,,,,,
1606529663.066186,6.000000,0.000000,4231.922852,4207.948730,4226.410156,4261.025879,4225.000000,4210.897461,4204.871582,4218.077148,4221.666504,4221.794922,4217.820313,4238.974121,4227.051270,4216.922852,2650.000000,2.000000,,,,0.000000,4.000000,4.000000,4.000000,4.000000,4.000000,4.000000,4.000000,4.000000,4.000000,4.000000,4.000000,4.000000,4.000000,4.000000,100.000000,,,,,,,,,,,,,,,,,,,,,,,,,,,,,,,,,,,,,,,,,,,,,,,,,,,,,,,,,,,,,,,,,,,,,,,,,,,,,,,,,,,,,,,,,,,,,,,,,,,,,,,,,,,,,,,,,
1606529663.074082,7.000000,0.000000,4236.282227,4204.230957,4230.897461,4259.871582,4233.333496,4208.717773,4201.794922,4221.025879,4229.871582,4228.589844,4221.410156,4246.666504,4230.897461,4221.538574,3007.000000,2.000000,,,,0.000000,4.000000,4.000000,4.000000,4.000000,4.000000,4.000000,4.000000,4.000000,4.000000,4.000000,4.000000,4.000000,4.000000,4.000000,100.000000,,,,,,,,,,,,,,,,,,,,,,,,,,,,,,,,,,,,,,,,,,,,,,,,,,,,,,,,,,,,,,,,,,,,,,,,,,,,,,,,,,,,,,,,,,,,,,,,,,,,,,,,,,,,,,,,,
1606529663.081978,8.000000,0.000000,4233.077148,4198.846191,4231.153809,4241.410156,4237.820313,4207.820313,4199.743652,4218.077148,4231.666504,4234.102539,4220.128418,4245.512695,4233.461426,4219.743652,3221.000000,2.000000,,,,0.000000,4.000000,4.000000,4.000000,4.000000,4.000000,4.000000,4.000000,4.000000,4.000000,4.000000,4.000000,4.000000,4.000000,4.000000,100.000000,2.000000,0.000000,0.651736,-0.480347,-0.532837,-0.246155,0.945815,-0.347662,-0.023926,-32.001221,-122.172882,12.262150,,,,,,,,,,,,,,,,,,,,,,,,,,,,,,,,,,,,,,,,,,,,,,,,,,,,,,,,,,,,,,,,,,,,,,,,,,,,,,,,,,,,,,,,,,,,,,,,,,,,,
1606529663.089874,9.000000,0.000000,4227.436035,4198.589844,4230.384766,4237.820313,4231.538574,4207.692383,4207.563965,4220.897461,4232.436035,4233.461426,4214.871582,4236.153809,4230.128418,4215.000000,3617.000000,2.000000,,,,0.000000,4.000000,4.000000,4.000000,4.000000,4.000000,4.000000,4.000000,4.000000,4.000000,4.000000,4.000000,4.000000,4.000000,4.000000,100.000000,,,,,,,,,,,,,,,,,,,,,,,,,,,,,,,,,,,,,,,,,,,,,,,,,,,,,,,,,,,,,,,,,,,,,,,,,,,,,,,,,,,,,,,,,,,,,,,,,,,,,,,,,,,,,,,,,
1606529663.097769,10.000000,0.000000,4228.077148,4203.846191,4229.358887,4255.256348,4223.717773,4202.051270,4210.897461,4220.000000,4229.230957,4230.256348,4210.384766,4232.307617,4219.358887,4215.256348,3601.000000,2.000000,,,,0.000000,4.000000,4.000000,4.000000,4.000000,4.000000,4.000000,4.000000,4.000000,4.000000,4.000000,4.000000,4.000000,4.000000,4.000000,100.000000,,,,,,,,,,,,,,,,,,,,,,,,,,,,,,,,,,,,,,,,,,,,,,,,,,,,,,,,,,,,,,,,,,,,,,,,,,,,,,,,,,,,,,,,,,,,,,,,,,,,,,,,,,,,,,,,,
1606529663.105565,11.000000,0.000000,4234.487305,4205.256348,4229.871582,4258.205078,4215.128418,4199.615234,4202.179688,4220.512695,4230.512695,4231.410156,4211.922852,4239.102539,4217.436035,4214.230957,3464.000000,2.000000,,,,0.000000,4.000000,4.000000,4.000000,4.000000,4.000000,4.000000,4.000000,4.000000,4.000000,4.000000,4.000000,4.000000,4.000000,4.000000,100.000000,,,,,,,,,,,,,,,,,,,,,,,,,,,,,,,,,,,,,,,,,,,,,,,,,,,,,,,,,,,,,,,,,,,,,,,,,,,,,,,,,,,,,,,,,,,,,,,,,,,,,,,,,,,,,,,,,
1606529663.113261,12.000000,0.000000,4240.000000,4201.282227,4232.692383,4252.179688,4211.922852,4201.794922,4197.436035,4227.948730,4241.282227,4241.794922,4222.436035,4247.051270,4226.794922,4216.282227,3474.000000,2.000000,,,,0.000000,4.000000,4.000000,4.000000,4.000000,4.000000,4.000000,4.000000,4.000000,4.000000,4.000000,4.000000,4.000000,4.000000,4.000000,100.000000,3.000000,0.000000,0.651787,-0.479980,-0.533020,-0.246338,0.958999,-0.352544,-0.019532,-33.197529,-122.920578,13.757534,,,,,,,,,,,,,,,,,,,,,,,,,,,,,,,,3.527872,1.780653,0.562851,1.077872,0.393505,2.983944,0.964281,0.641689,0.659554,0.476154,1.385647,1.175422,0.630808,0.349521,0.147138,0.516837,0.408083,0.383204,0.327115,0.240261,0.390739,0.448565,0.371064,0.643620,0.576550,1.145584,0.427528,0.140466,0.305870,0.226140,0.595984,0.299911,0.252927,0.206453,0.205844,0.737838,1.134585,0.828489,0.418410,0.348121,1.707266,1.364266,0.301601,0.526303,0.240653,2.323293,0.608675,0.221690,0.746496,0.386677,1.466313,0.452061,0.221393,0.681198,0.230958,1.286578,0.803853,0.300589,0.672527,0.162182,2.031013,0.366316,0.368730,0.878551,0.284068,1.752398,0.808016,0.491045,0.845691,0.278162
1606529663.121157,13.000000,0.000000,4239.230957,4202.051270,4236.282227,4259.102539,4219.743652,4201.153809,4208.205078,4234.102539,4244.358887,4247.948730,4230.384766,4251.666504,4236.025879,4225.769043,3340.000000,2.000000,,,,0.000000,4.000000,4.000000,4.000000,4.000000,4.000000,4.000000,4.000000,4.000000,4.000000,4.000000,4.000000,4.000000,4.000000,4.000000,100.000000,,,,,,,,,,,,,,,,,,,,,,,,,,,,,,,,,,,,,,,,,,,,,,,,,,,,,,,,,,,,,,,,,,,,,,,,,,,,,,,,,,,,,,,,,,,,,,,,,,,,,,,,,,,,,,,,,
1606529663.128853,14.000000,0.000000,4232.051270,4201.666504,4235.384766,4262.820313,4217.563965,4202.436035,4216.538574,4233.205078,4231.282227,4231.794922,4224.102539,4250.641113,4233.717773,4226.282227,3601.000000,2.000000,,,,0.000000,4.000000,4.000000,4.000000,4.000000,4.000000,4.000000,4.000000,4.000000,4.000000,4.000000,4.000000,4.000000,4.000000,4.000000,100.000000,,,,,,,,,,,,,,,,,,,,,,,,,,,,,,,,,,,,,,,,,,,,,,,,,,,,,,,,,,,,,,,,,,,,,,,,,,,,,,,,,,,,,,,,,,,,,,,,,,,,,,,,,,,,,,,,,
1606529663.136449,15.000000,0.000000,4227.307617,4197.051270,4232.820313,4259.230957,4213.846191,4206.794922,4208.846191,4218.974121,4213.974121,4216.282227,4214.871582,4246.666504,4224.871582,4216.153809,3464.000000,2.000000,,,,0.000000,4.000000,4.000000,4.000000,4.000000,4.000000,4.000000,4.000000,4.000000,4.000000,4.000000,4.000000,4.000000,4.000000,4.000000,100.000000,,,,,,,,,,,,,,,,,,,,,,,,,,,,,,,,,,,,,,,,,,,,,,,,,,,,,,,,,,,,,,,,,,,,,,,,,,,,,,,,,,,,,,,,,,,,,,,,,,,,,,,,,,,,,,,,,
1606529663.144344,16.000000,0.000000,4232.307617,4199.230957,4232.820313,4260.256348,4222.692383,4206.538574,4201.794922,4204.102539,4203.717773,4214.615234,4210.256348,4244.487305,4216.025879,4212.692383,0.000000,2.000000,,,,0.000000,4.000000,4.000000,4.000000,4.000000,4.000000,4.000000,4.000000,4.000000,4.000000,4.000000,4.000000,4.000000,4.000000,4.000000,100.000000,4.000000,0.000000,0.653210,-0.476257,-0.535706,-0.243958,0.952651,-0.336431,-0.021973,-33.197529,-121.425194,13.009842,,,,,,,,,,,,,,,,,,,,,,,,,,,,,,,,,,,,,,,,,,,,,,,,,,,,,,,,,,,,,,,,,,,,,,,,,,,,,,,,,,,,,,,,,,,,,,,,,,,,,
1606529663.152240,17.000000,0.000000,4230.897461,4200.897461,4232.692383,4253.205078,4222.948730,4205.128418,4204.615234,4207.436035,4197.307617,4206.538574,4207.563965,4240.256348,4211.025879,4213.333496,0.000000,2.000000,,,,0.000000,4.000000,4.000000,4.000000,4.000000,4.000000,4.000000,4.000000,4.000000,4.000000,4.000000,4.000000,4.000000,4.000000,4.000000,100.000000,,,,,,,,,,,,,,,,,,,,,,,,,,,,,,,,,,,,,,,,,,,,,,,,,,,,,,,,,,,,,,,,,,,,,,,,,,,,,,,,,,,,,,,,,,,,,,,,,,,,,,,,,,,,,,,,,
1606529663.160136,18.000000,0.000000,4225.897461,4197.179688,4233.077148,4244.358887,4206.794922,4202.692383,4206.794922,4219.230957,4195.384766,4193.974121,4205.000000,4233.205078,4211.153809,4212.436035,0.000000,2.000000,,,,0.000000,4.000000,4.000000,4.000000,4.000000,4.000000,4.000000,4.000000,4.000000,4.000000,4.000000,4.000000,4.000000,4.000000,4.000000,100.000000,,,,,,,,,,,,,,,,,,,,,,,,,,,,,,,,,,,,,,,,,,,,,,,,,,,,,,,,,,,,,,,,,,,,,,,,,,,,,,,,,,,,,,,,,,,,,,,,,,,,,,,,,,,,,,,,,
1606529663.168131,19.000000,0.000000,4228.717773,4196.794922,4233.205078,4253.589844,4198.205078,4201.282227,4204.102539,4220.897461,4202.051270,4197.179688,4206.153809,4233.717773,4210.641113,4214.230957,0.000000,2.000000,,,,0.000000,4.000000,4.000000,4.000000,4.000000,4.000000,4.000000,4.000000,4.000000,4.000000,4.000000,4.000000,4.000000,4.000000,4.000000,100.000000,,,,,,,,,,,,,,,,,,,,,,,,,,,,,,,,,,,,,,,,,,,,,,,,,,,,,,,,,,,,,,,,,,,,,,,,,,,,,,,,,,,,,,,,,,,,,,,,,,,,,,,,,,,,,,,,,
1606529663.176027,20.000000,0.000000,4230.512695,4199.102539,4233.589844,4260.641113,4209.615234,4201.025879,4203.205078,4220.641113,4212.820313,4210.512695,4210.128418,4238.846191,4211.922852,4215.641113,0.000000,2.000000,,,,0.000000,4.000000,4.000000,4.000000,4.000000,4.000000,4.000000,4.000000,4.000000,4.000000,4.000000,4.000000,4.000000,4.000000,4.000000,100.000000,5.000000,0.000000,0.654576,-0.472839,-0.538330,-0.241150,0.951186,-0.360845,-0.023438,-33.496605,-121.574730,11.215381,,,,,,,,,,,,,,,,,,,,,,,,,,,,,,,,,,,,,,,,,,,,,,,,,,,,,,,,,,,,,,,,,,,,,,,,,,,,,,,,,,,,,,,,,,,,,,,,,,,,,
1606529663.183923,21.000000,0.000000,4232.307617,4196.794922,4233.205078,4252.307617,4220.769043,4203.333496,4203.974121,4222.179688,4219.871582,4216.153809,4211.794922,4237.692383,4215.256348,4219.102539,0.000000,2.000000,,,,0.000000,4.000000,4.000000,4.000000,4.000000,4.000000,4.000000,4.000000,4.000000,4.000000,4.000000,4.000000,4.000000,4.000000,4.000000,100.000000,,,,,,,,,,,,,,,,,,,,,,,,,,,,,,,,,,,,,,,,,,,,,,,,,,,,,,,,,,,,,,,,,,,,,,,,,,,,,,,,,,,,,,,,,,,,,,,,,,,,,,,,,,,,,,,,,
1606529663.191819,22.000000,0.000000,4227.179688,4191.025879,4226.153809,4244.102539,4215.384766,4205.769043,4203.205078,4218.846191,4219.615234,4214.743652,4205.512695,4234.102539,4211.538574,4219.102539,0.000000,2.000000,,,,0.000000,4.000000,4.000000,4.000000,4.000000,4.000000,4.000000,4.000000,4.000000,4.000000,4.000000,4.000000,4.000000,4.000000,4.000000,100.000000,,,,,,,,,,,,,,,,,,,,,,,,,,,,,,,,,,,,,,,,,,,,,,,,,,,,,,,,,,,,,,,,,,,,,,,,,,,,,,,,,,,,,,,,,,,,,,,,,,,,,,,,,,,,,,,,,
1606529663.199814,23.000000,0.000000,4217.692383,4187.051270,4217.692383,4245.769043,4203.461426,4202.820313,4199.615234,4215.512695,4220.256348,4211.794922,4197.820313,4228.461426,4204.487305,4206.538574,0.000000,2.000000,,,,0.000000,4.000000,4.000000,4.000000,4.000000,4.000000,4.000000,4.000000,4.000000,4.000000,4.000000,4.000000,4.000000,4.000000,4.000000,100.000000,,,,,,,,,,,,,,,,,,,,,,,,,,,,,,,,,,,,,,,,,,,,,,,,,,,,,,,,,,,,,,,,,,,,,,,,,,,,,,,,,,,,,,,,,,,,,,,,,,,,,,,,,,,,,,,,,
1606529663.207710,24.000000,0.000000,4218.077148,4187.820313,4217.051270,4249.487305,4199.230957,4203.461426,4198.974121,4212.820313,4219.358887,4212.051270,4199.102539,4220.256348,4204.230957,4198.717773,0.000000,2.000000,,,,0.000000,4.000000,4.000000,4.000000,4.000000,4.000000,4.000000,4.000000,4.000000,4.000000,4.000000,4.000000,4.000000,4.000000,4.000000,100.000000,6.000000,0.000000,0.654579,-0.472900,-0.538574,-0.240479,0.957534,-0.378912,-0.027344,-32.300297,-122.322426,11.663997,,,,,,,,,,,,,,,,,,,,,,,,,,,,,,,,,,,,,,,,,,,,,,,,,,,,,,,,,,,,,,,,,,,,,,,,,,,,,,,,,,,,,,,,,,,,,,,,,,,,,
1606529663.215606,25.000000,0.000000,4213.077148,4186.410156,4216.410156,4246.025879,4201.666504,4213.589844,4203.846191,4213.589844,4215.897461,4213.077148,4197.692383,4218.717773,4205.128418,4205.256348,0.000000,2.000000,,,,0.000000,4.000000,4.000000,4.000000,4.000000,4.000000,4.000000,4.000000,4.000000,4.000000,4.000000,4.000000,4.000000,4.000000,4.000000,100.000000,,,,,,,,,,,,,,,,,,,,,,,,,,,,,,,,,,,,,,,,,,,,,,,,,,,,,,,,,,,,,,,,,,,,,,,,,,,,,,,,,,,,,,,,,,,,,,,,,,,,,,,,,,,,,,,,,
1606529663.223501,26.000000,0.000000,4200.256348,4183.077148,4216.282227,4242.307617,4207.820313,4217.948730,4205.384766,4218.846191,4223.333496,4216.153809,4200.000000,4228.461426,4204.615234,4212.307617,0.000000,2.000000,,,,0.000000,4.000000,4.000000,4.000000,4.000000,4.000000,4.000000,4.000000,4.000000,4.000000,4.000000,4.000000,4.000000,4.000000,4.000000,100.000000,,,,,,,,,,,,,,,,,,,,,,,,,,,,,,,,,,,,,,,,,,,,,,,,,,,,,,,,,,,,,,,,,,,,,,,,,,,,,,,,,,,,,,,,,,,,,,,,,,,,,,,,,,,,,,,,,
1606529663.231497,27.000000,0.000000,4208.077148,4186.153809,4222.051270,4244.615234,4217.179688,4213.974121,4203.333496,4224.230957,4232.692383,4231.538574,4212.179688,4240.512695,4216.794922,4215.128418,0.000000,2.000000,,,,0.000000,4.000000,4.000000,4.000000,4.000000,4.000000,4.000000,4.000000,4.000000,4.000000,4.000000,4.000000,4.000000,4.000000,4.000000,100.000000,,,,,,,,,,,,,,,,,,,,,,,,,,,,,,,,,,,,,,,,,,,,,,,,,,,,,,,,,,,,,,,,,,,,,,,,,,,,,,,,,,,,,,,,,,,,,,,,,,,,,,,,,,,,,,,,,
1606529663.239393,28.000000,0.000000,4223.846191,4191.153809,4223.974121,4247.692383,4221.153809,4216.410156,4205.000000,4223.333496,4224.871582,4236.025879,4209.102539,4239.743652,4224.230957,4217.307617,0.000000,2.000000,,,,0.000000,4.000000,4.000000,4.000000,4.000000,4.000000,4.000000,4.000000,4.000000,4.000000,4.000000,4.000000,4.000000,4.000000,4.000000,100.000000,7.000000,0.000000,0.654106,-0.473999,-0.537964,-0.240967,0.951186,-0.378424,-0.030274,-33.496605,-122.771042,13.159381,,,,,,,,,,,,,,,,,,,,,,,,,,,,,,,,2.472630,1.554646,0.409774,1.060080,0.400009,2.174865,0.767189,0.490858,0.665449,0.421460,1.297694,1.098247,0.523362,0.365954,0.161781,0.465088,0.330123,0.325632,0.362453,0.243299,0.313156,0.380159,0.390097,0.583776,0.498969,1.179107,0.476166,0.139156,0.352539,0.225425,0.569675,0.349029,0.234994,0.240407,0.197974,0.636380,1.097653,0.773739,0.484660,0.381749,1.838962,1.631158,0.339860,0.586415,0.270804,2.396544,0.732719,0.333215,0.779827,0.397841,1.671614,0.434089,0.264089,0.768570,0.229231,1.314806,0.815123,0.305461,0.750435,0.168793,2.145090,0.424948,0.413345,1.006441,0.304923,1.817834,0.705423,0.381877,0.933678,0.270831
1606529663.247288,29.000000,0.000000,4218.077148,4187.051270,4218.077148,4244.743652,4216.538574,4213.974121,4204.615234,4216.666504,4212.820313,4214.871582,4197.563965,4230.769043,4210.128418,4215.000000,0.000000,2.000000,,,,0.000000,4.000000,4.000000,4.000000,4.000000,4.000000,4.000000,4.000000,4.000000,4.000000,4.000000,4.000000,4.000000,4.000000,4.000000,100.000000,,,,,,,,,,,,,,,,,,,,,,,,,,,,,,,,,,,,,,,,,,,,,,,,,,,,,,,,,,,,,,,,,,,,,,,,,,,,,,,,,,,,,,,,,,,,,,,,,,,,,,,,,,,,,,,,,
1606529663.255284,30.000000,0.000000,4210.769043,4180.769043,4214.871582,4241.666504,4207.948730,4201.282227,4200.897461,4216.410156,4212.563965,4200.769043,4198.205078,4227.179688,4202.563965,4209.487305,0.000000,2.000000,,,,0.000000,4.000000,4.000000,4.000000,4.000000,4.000000,4.000000,4.000000,4.000000,4.000000,4.000000,4.000000,4.000000,4.000000,4.000000,100.000000,,,,,,,,,,,,,,,,,,,,,,,,,,,,,,,,,,,,,,,,,,,,,,,,,,,,,,,,,,,,,,,,,,,,,,,,,,,,,,,,,,,,,,,,,,,,,,,,,,,,,,,,,,,,,,,,,
1606529663.263180,31.000000,0.000000,4216.410156,4184.230957,4220.128418,4245.128418,4210.897461,4200.641113,4201.922852,4220.512695,4215.256348,4215.384766,4202.948730,4233.846191,4215.000000,4213.589844,0.000000,2.000000,,,,0.000000,4.000000,4.000000,4.000000,4.000000,4.000000,4.000000,4.000000,4.000000,4.000000,4.000000,4.000000,4.000000,4.000000,4.000000,100.000000,,,,,,,,,,,,,,,,,,,,,,,,,,,,,,,,,,,,,,,,,,,,,,,,,,,,,,,,,,,,,,,,,,,,,,,,,,,,,,,,,,,,,,,,,,,,,,,,,,,,,,,,,,,,,,,,,
1606529663.271075,32.000000,0.000000,4218.717773,4188.846191,4224.487305,4247.307617,4219.230957,4208.205078,4204.230957,4220.512695,4217.179688,4223.461426,4202.948730,4236.538574,4223.589844,4217.820313,0.000000,2.000000,,,,0.000000,4.000000,4.000000,4.000000,4.000000,4.000000,4.000000,4.000000,4.000000,4.000000,4.000000,4.000000,4.000000,4.000000,4.000000,100.000000,8.000000,0.000000,0.653806,-0.474670,-0.537354,-0.241821,0.930678,-0.405280,-0.028809,-32.001221,-121.425194,12.262150,,,,,,,,,,,,,,,,,,,,,,,,,,,,,,,,,,,,,,,,,,,,,,,,,,,,,,,,,,,,,,,,,,,,,,,,,,,,,,,,,,,,,,,,,,,,,,,,,,,,,
1606529663.278771,33.000000,0.000000,4216.666504,4184.871582,4220.384766,4244.871582,4212.692383,4204.615234,4202.436035,4219.871582,4214.358887,4206.538574,4200.769043,4228.077148,4212.179688,4207.307617,0.000000,2.000000,,,,0.000000,4.000000,4.000000,4.000000,4.000000,4.000000,4.000000,4.000000,4.000000,4.000000,4.000000,4.000000,4.000000,4.000000,4.000000,100.000000,,,,,,,,,,,,,,,,,,,,,,,,,,,,,,,,,,,,,,,,,,,,,,,,,,,,,,,,,,,,,,,,,,,,,,,,,,,,,,,,,,,,,,,,,,,,,,,,,,,,,,,,,,,,,,,,,
1606529663.286467,34.000000,0.000000,4215.512695,4182.051270,4214.487305,4245.128418,4206.666504,4198.846191,4201.282227,4218.846191,4204.487305,4194.358887,4196.410156,4225.384766,4199.743652,4201.282227,0.000000,2.000000,,,,0.000000,4.000000,4.000000,4.000000,4.000000,4.000000,4.000000,4.000000,4.000000,4.000000,4.000000,4.000000,4.000000,4.000000,4.000000,100.000000,,,,,,,,,,,,,,,,,,,,,,,,,,,,,,,,,,,,,,,,,,,,,,,,,,,,,,,,,,,,,,,,,,,,,,,,,,,,,,,,,,,,,,,,,,,,,,,,,,,,,,,,,,,,,,,,,
1606529663.294463,35.000000,0.000000,4217.948730,4189.487305,4219.743652,4249.102539,4211.538574,4202.948730,4201.153809,4209.230957,4203.846191,4198.333496,4194.358887,4231.538574,4205.384766,4212.179688,0.000000,2.000000,,,,0.000000,4.000000,4.000000,4.000000,4.000000,4.000000,4.000000,4.000000,4.000000,4.000000,4.000000,4.000000,4.000000,4.000000,4.000000,100.000000,,,,,,,,,,,,,,,,,,,,,,,,,,,,,,,,,,,,,,,,,,,,,,,,,,,,,,,,,,,,,,,,,,,,,,,,,,,,,,,,,,,,,,,,,,,,,,,,,,,,,,,,,,,,,,,,,
1606529663.302358,36.000000,0.000000,4222.692383,4192.948730,4230.897461,4249.743652,4217.820313,4207.820313,4200.128418,4207.692383,4212.563965,4209.358887,4198.333496,4234.230957,4214.615234,4220.128418,0.000000,2.000000,,,,0.000000,4.000000,4.000000,4.000000,4.000000,4.000000,4.000000,4.000000,4.000000,4.000000,4.000000,4.000000,4.000000,4.000000,4.000000,100.000000,9.000000,0.000000,0.654065,-0.473633,-0.538391,-0.240845,0.954604,-0.373541,-0.026368,-33.197529,-123.369194,11.813535,,,,,,,,,,,,,,,,,,,,,,,,,,,,,,,,,,,,,,,,,,,,,,,,,,,,,,,,,,,,,,,,,,,,,,,,,,,,,,,,,,,,,,,,,,,,,,,,,,,,,
1606529663.310054,37.000000,0.000000,4221.282227,4185.897461,4231.025879,4247.307617,4225.128418,4212.307617,4206.538574,4225.897461,4219.487305,4214.487305,4206.282227,4234.615234,4218.461426,4217.692383,0.000000,2.000000,,,,0.000000,4.000000,4.000000,4.000000,4.000000,4.000000,4.000000,4.000000,4.000000,4.000000,4.000000,4.000000,4.000000,4.000000,4.000000,100.000000,,,,,,,,,,,,,,,,,,,,,,,,,,,,,,,,,,,,,,,,,,,,,,,,,,,,,,,,,,,,,,,,,,,,,,,,,,,,,,,,,,,,,,,,,,,,,,,,,,,,,,,,,,,,,,,,,
1606529663.317950,38.000000,0.000000,4214.487305,4183.589844,4221.666504,4246.025879,4215.897461,4215.769043,4216.282227,4230.000000,4219.230957,4208.333496,4204.102539,4236.282227,4214.871582,4216.538574,0.000000,2.000000,,,,0.000000,4.000000,4.000000,4.000000,4.000000,4.000000,4.000000,4.000000,4.000000,4.000000,4.000000,4.000000,4.000000,4.000000,4.000000,100.000000,,,,,,,,,,,,,,,,,,,,,,,,,,,,,,,,,,,,,,,,,,,,,,,,,,,,,,,,,,,,,,,,,,,,,,,,,,,,,,,,,,,,,,,,,,,,,,,,,,,,,,,,,,,,,,,,,
1606529663.325746,39.000000,0.000000,4208.461426,4182.563965,4214.102539,4243.205078,4195.384766,4212.307617,4213.974121,4210.769043,4207.563965,4200.384766,4187.307617,4231.153809,4202.692383,4213.846191,0.000000,2.000000,,,,0.000000,4.000000,4.000000,4.000000,4.000000,4.000000,4.000000,4.000000,4.000000,4.000000,4.000000,4.000000,4.000000,4.000000,4.000000,100.000000,,,,,,,,,,,,,,,,,,,,,,,,,,,,,,,,,,,,,,,,,,,,,,,,,,,,,,,,,,,,,,,,,,,,,,,,,,,,,,,,,,,,,,,,,,,,,,,,,,,,,,,,,,,,,,,,,
1606529663.333642,40.000000,0.000000,4212.307617,4185.128418,4223.846191,4248.717773,4200.000000,4206.410156,4204.743652,4208.974121,4203.461426,4206.538574,4193.589844,4238.846191,4205.641113,4219.230957,0.000000,2.000000,,,,0.000000,4.000000,4.000000,4.000000,4.000000,4.000000,4.000000,4.000000,4.000000,4.000000,4.000000,4.000000,4.000000,4.000000,4.000000,100.000000,10.000000,0.000000,0.654507,-0.472351,-0.539551,-0.239563,0.932631,-0.363775,-0.033692,-34.094757,-122.920578,12.561227,,,,,,,,,,,,,,,,,,,,,,,,,,,,,,,,,,,,,,,,,,,,,,,,,,,,,,,,,,,,,,,,,,,,,,,,,,,,,,,,,,,,,,,,,,,,,,,,,,,,,
1606529663.341537,41.000000,0.000000,4218.205078,4186.922852,4234.358887,4251.282227,4201.410156,4203.333496,4200.256348,4217.307617,4212.307617,4215.641113,4216.025879,4255.769043,4223.461426,4226.282227,0.000000,2.000000,,,,0.000000,4.000000,4.000000,4.000000,4.000000,4.000000,4.000000,4.000000,4.000000,4.000000,4.000000,4.000000,4.000000,4.000000,4.000000,100.000000,,,,,,,,,,,,,,,,,,,,,,,,,,,,,,,,,,,,,,,,,,,,,,,,,,,,,,,,,,,,,,,,,,,,,,,,,,,,,,,,,,,,,,,,,,,,,,,,,,,,,,,,,,,,,,,,,
1606529663.349433,42.000000,0.000000,4214.871582,4177.820313,4227.179688,4238.461426,4187.179688,4201.153809,4205.000000,4216.410156,4217.051270,4212.563965,4215.641113,4252.948730,4222.948730,4221.282227,0.000000,2.000000,,,,0.000000,4.000000,4.000000,4.000000,4.000000,4.000000,4.000000,4.000000,4.000000,4.000000,4.000000,4.000000,4.000000,4.000000,4.000000,100.000000,,,,,,,,,,,,,,,,,,,,,,,,,,,,,,,,,,,,,,,,,,,,,,,,,,,,,,,,,,,,,,,,,,,,,,,,,,,,,,,,,,,,,,,,,,,,,,,,,,,,,,,,,,,,,,,,,
1606529663.357429,43.000000,0.000000,4216.410156,4175.897461,4226.153809,4239.230957,4206.025879,4201.794922,4213.974121,4227.948730,4219.871582,4218.461426,4206.282227,4247.051270,4213.846191,4222.051270,0.000000,2.000000,,,,0.000000,4.000000,4.000000,4.000000,4.000000,4.000000,4.000000,4.000000,4.000000,4.000000,4.000000,4.000000,4.000000,4.000000,4.000000,100.000000,,,,,,,,,,,,,,,,,,,,,,,,,,,,,,,,,,,,,,,,,,,,,,,,,,,,,,,,,,,,,,,,,,,,,,,,,,,,,,,,,,,,,,,,,,,,,,,,,,,,,,,,,,,,,,,,,
1606529663.365324,44.000000,0.000000,4218.974121,4185.384766,4230.512695,4247.179688,4220.000000,4203.846191,4216.025879,4234.487305,4220.256348,4225.128418,4206.025879,4250.384766,4216.410156,4226.538574,0.000000,2.000000,,,,0.000000,4.000000,4.000000,4.000000,4.000000,4.000000,4.000000,4.000000,4.000000,4.000000,4.000000,4.000000,4.000000,4.000000,4.000000,100.000000,11.000000,0.000000,0.655037,-0.471069,-0.540405,-0.238708,0.945327,-0.368170,-0.024903,-33.197529,-122.920578,12.561227,,,,,,,,,,,,,,,,,,,,,,,,,,,,,,,,1.672183,1.329334,0.301258,1.001795,0.396919,1.551075,0.581035,0.355856,0.634394,0.360152,1.297935,0.992543,0.411446,0.385124,0.175886,0.461516,0.254300,0.264526,0.387659,0.248713,0.295444,0.335534,0.449697,0.518715,0.436201,1.147038,0.500827,0.135276,0.374772,0.221704,0.520376,0.386926,0.211504,0.284218,0.187895,0.691376,1.110398,0.666847,0.547560,0.416108,2.161676,1.814406,0.392130,0.635610,0.297304,2.612170,0.850195,0.475895,0.793707,0.403698,2.019859,0.462695,0.309015,0.812613,0.219829,1.497319,0.889901,0.339319,0.803203,0.176595,2.295469,0.542293,0.464431,1.076711,0.321648,1.979558,0.665959,0.318375,0.990993,0.265487
1606529663.373220,45.000000,0.000000,4207.948730,4183.717773,4222.179688,4237.307617,4201.538574,4202.179688,4210.384766,4216.410156,4210.769043,4204.487305,4200.641113,4246.538574,4216.794922,4218.077148,0.000000,2.000000,,,,0.000000,4.000000,4.000000,4.000000,4.000000,4.000000,4.000000,4.000000,4.000000,4.000000,4.000000,4.000000,4.000000,4.000000,4.000000,100.000000,,,,,,,,,,,,,,,,,,,,,,,,,,,,,,,,,,,,,,,,,,,,,,,,,,,,,,,,,,,,,,,,,,,,,,,,,,,,,,,,,,,,,,,,,,,,,,,,,,,,,,,,,,,,,,,,,
1606529663.381116,46.000000,0.000000,4206.025879,4183.077148,4218.333496,4235.000000,4203.717773,4207.436035,4212.820313,4217.051270,4216.666504,4199.487305,4201.025879,4244.743652,4216.922852,4212.307617,0.000000,2.000000,,,,0.000000,4.000000,4.000000,4.000000,4.000000,4.000000,4.000000,4.000000,4.000000,4.000000,4.000000,4.000000,4.000000,4.000000,4.000000,100.000000,,,,,,,,,,,,,,,,,,,,,,,,,,,,,,,,,,,,,,,,,,,,,,,,,,,,,,,,,,,,,,,,,,,,,,,,,,,,,,,,,,,,,,,,,,,,,,,,,,,,,,,,,,,,,,,,,
1606529663.389111,47.000000,0.000000,4216.794922,4191.666504,4224.358887,4242.563965,4205.769043,4214.230957,4213.205078,4232.820313,4231.153809,4219.358887,4208.974121,4247.179688,4218.077148,4220.897461,0.000000,2.000000,,,,0.000000,4.000000,4.000000,4.000000,4.000000,4.000000,4.000000,4.000000,4.000000,4.000000,4.000000,4.000000,4.000000,4.000000,4.000000,100.000000,,,,,,,,,,,,,,,,,,,,,,,,,,,,,,,,,,,,,,,,,,,,,,,,,,,,,,,,,,,,,,,,,,,,,,,,,,,,,,,,,,,,,,,,,,,,,,,,,,,,,,,,,,,,,,,,,
1606529663.397007,48.000000,0.000000,4211.538574,4188.974121,4218.461426,4233.333496,4184.358887,4202.051270,4204.487305,4223.717773,4221.538574,4210.256348,4191.282227,4236.153809,4204.487305,4217.307617,0.000000,2.000000,,,,0.000000,4.000000,4.000000,4.000000,4.000000,4.000000,4.000000,4.000000,4.000000,4.000000,4.000000,4.000000,4.000000,4.000000,4.000000,100.000000,12.000000,0.000000,0.655251,-0.470459,-0.540894,-0.238220,0.956558,-0.368170,-0.014649,-32.898453,-122.172882,12.561227,,,,,,,,,,,,,,,,,,,,,,,,,,,,,,,,,,,,,,,,,,,,,,,,,,,,,,,,,,,,,,,,,,,,,,,,,,,,,,,,,,,,,,,,,,,,,,,,,,,,,
