title:johnathan_nback_5, start timestamp:1606530625.834948, stop timestamp:1606530681.542613, headset type:EPOCPLUS, headset serial:4A2C14BBFA, headset firmware:634, channels:151, sampling rate:eeg_128;mot_32;pm_0.1;pow_8, samples:7147      , version:2.0
Timestamp,EEG.Counter,EEG.Interpolated,EEG.AF3,EEG.F7,EEG.F3,EEG.FC5,EEG.T7,EEG.P7,EEG.O1,EEG.O2,EEG.P8,EEG.T8,EEG.FC6,EEG.F4,EEG.F8,EEG.AF4,EEG.RawCq,EEG.Battery,MarkerIndex,MarkerType,MarkerValueInt,EEG.MarkerHardware,CQ.AF3,CQ.F7,CQ.F3,CQ.FC5,CQ.T7,CQ.P7,CQ.O1,CQ.O2,CQ.P8,CQ.T8,CQ.FC6,CQ.F4,CQ.F8,CQ.AF4,CQ.Overall,MOT.CounterMems,MOT.InterpolatedMems,MOT.Q0,MOT.Q1,MOT.Q2,MOT.Q3,MOT.AccX,MOT.AccY,MOT.AccZ,MOT.MagX,MOT.MagY,MOT.MagZ,PM.Engagement.IsActive,PM.Engagement.Scaled,PM.Engagement.Raw,PM.Engagement.Min,PM.Engagement.Max,PM.Excitement.IsActive,PM.Excitement.Scaled,PM.Excitement.Raw,PM.Excitement.Min,PM.Excitement.Max,PM.LongTermExcitement,PM.Stress.IsActive,PM.Stress.Scaled,PM.Stress.Raw,PM.Stress.Min,PM.Stress.Max,PM.Relaxation.IsActive,PM.Relaxation.Scaled,PM.Relaxation.Raw,PM.Relaxation.Min,PM.Relaxation.Max,PM.Interest.IsActive,PM.Interest.Scaled,PM.Interest.Raw,PM.Interest.Min,PM.Interest.Max,PM.Focus.IsActive,PM.Focus.Scaled,PM.Focus.Raw,PM.Focus.Min,PM.Focus.Max,POW.AF3.Theta,POW.AF3.Alpha,POW.AF3.BetaL,POW.AF3.BetaH,POW.AF3.Gamma,POW.F7.Theta,POW.F7.Alpha,POW.F7.BetaL,POW.F7.BetaH,POW.F7.Gamma,POW.F3.Theta,POW.F3.Alpha,POW.F3.BetaL,POW.F3.BetaH,POW.F3.Gamma,POW.FC5.Theta,POW.FC5.Alpha,POW.FC5.BetaL,POW.FC5.BetaH,POW.FC5.Gamma,POW.T7.Theta,POW.T7.Alpha,POW.T7.BetaL,POW.T7.BetaH,POW.T7.Gamma,POW.P7.Theta,POW.P7.Alpha,POW.P7.BetaL,POW.P7.BetaH,POW.P7.Gamma,POW.O1.Theta,POW.O1.Alpha,POW.O1.BetaL,POW.O1.BetaH,POW.O1.Gamma,POW.O2.Theta,POW.O2.Alpha,POW.O2.BetaL,POW.O2.BetaH,POW.O2.Gamma,POW.P8.Theta,POW.P8.Alpha,POW.P8.BetaL,POW.P8.BetaH,POW.P8.Gamma,POW.T8.Theta,POW.T8.Alpha,POW.T8.BetaL,POW.T8.BetaH,POW.T8.Gamma,POW.FC6.Theta,POW.FC6.Alpha,POW.FC6.BetaL,POW.FC6.BetaH,POW.FC6.Gamma,POW.F4.Theta,POW.F4.Alpha,POW.F4.BetaL,POW.F4.BetaH,POW.F4.Gamma,POW.F8.Theta,POW.F8.Alpha,POW.F8.BetaL,POW.F8.BetaH,POW.F8.Gamma,POW.AF4.Theta,POW.AF4.Alpha,POW.AF4.BetaL,POW.AF4.BetaH,POW.AF4.Gamma
1606530625.834948,114.000000,0.000000,4247.179688,4216.025879,4213.589844,4199.230957,4233.589844,4237.179688,4200.128418,4198.846191,4213.333496,4166.153809,4180.769043,4250.128418,4254.871582,4210.641113,3618.000000,0.000000,,,,0.000000,4.000000,4.000000,4.000000,4.000000,4.000000,4.000000,4.000000,4.000000,4.000000,4.000000,4.000000,4.000000,4.000000,4.000000,100.000000,,,,,,,,,,,,,,,,,,,,,,,,,,,,,,,,,,,,,,,,,,,,,,,,,,,,,,,,,,,,,,,,,,,,,,,,,,,,,,,,,,,,,,,,,,,,,,,,,,,,,,,,,,,,,,,,,
1606530625.842944,115.000000,0.000000,4253.461426,4220.384766,4222.307617,4205.256348,4242.692383,4234.230957,4194.230957,4201.922852,4217.179688,4167.692383,4191.922852,4258.333496,4271.025879,4216.538574,3530.000000,0.000000,,,,0.000000,4.000000,4.000000,4.000000,4.000000,4.000000,4.000000,4.000000,4.000000,4.000000,4.000000,4.000000,4.000000,4.000000,4.000000,100.000000,,,,,,,,,,,,,,,,,,,,,,,,,,,,,,,,,,,,,,,,,,,,,,,,,,,,,,,,,,,,,,,,,,,,,,,,,,,,,,,,,,,,,,,,,,,,,,,,,,,,,,,,,,,,,,,,,
1606530625.850740,116.000000,0.000000,4264.102539,4227.307617,4233.461426,4215.512695,4251.666504,4232.307617,4186.666504,4191.538574,4217.436035,4176.410156,4205.384766,4265.000000,4284.871582,4226.666504,3536.000000,0.000000,,,,0.000000,4.000000,4.000000,4.000000,4.000000,4.000000,4.000000,4.000000,4.000000,4.000000,4.000000,4.000000,4.000000,4.000000,4.000000,100.000000,29.000000,0.000000,0.690647,-0.341248,-0.614929,-0.168579,0.991714,-0.281254,-0.006348,-32.599373,-117.836273,14.355688,,,,,,,,,,,,,,,,,,,,,,,,,,,,,,,,,,,,,,,,,,,,,,,,,,,,,,,,,,,,,,,,,,,,,,,,,,,,,,,,,,,,,,,,,,,,,,,,,,,,,
1606530625.858635,117.000000,0.000000,4264.743652,4230.256348,4228.333496,4214.102539,4246.922852,4234.487305,4185.128418,4181.922852,4215.769043,4175.512695,4200.897461,4264.358887,4279.487305,4228.974121,3354.000000,0.000000,,,,0.000000,4.000000,4.000000,4.000000,4.000000,4.000000,4.000000,4.000000,4.000000,4.000000,4.000000,4.000000,4.000000,4.000000,4.000000,100.000000,,,,,,,,,,,,,,,,,,,,,,,,,,,,,,,,,,,,,,,,,,,,,,,,,,,,,,,,,,,,,,,,,,,,,,,,,,,,,,,,,,,,,,,,,,,,,,,,,,,,,,,,,,,,,,,,,
1606530625.866531,118.000000,0.000000,4254.743652,4221.794922,4216.282227,4206.410156,4237.820313,4236.538574,4183.974121,4182.051270,4214.615234,4168.974121,4186.538574,4260.769043,4275.000000,4221.410156,3618.000000,0.000000,,,,0.000000,4.000000,4.000000,4.000000,4.000000,4.000000,4.000000,4.000000,4.000000,4.000000,4.000000,4.000000,4.000000,4.000000,4.000000,100.000000,,,,,,,,,,,,,,,,,,,,,,,,,,,,,,,,,,,,,,,,,,,,,,,,,,,,,,,,,,,,,,,,,,,,,,,,,,,,,,,,,,,,,,,,,,,,,,,,,,,,,,,,,,,,,,,,,
1606530625.874327,119.000000,0.000000,4248.461426,4212.179688,4215.128418,4205.384766,4234.230957,4232.948730,4184.743652,4184.615234,4211.922852,4171.538574,4190.641113,4257.948730,4279.743652,4217.436035,3530.000000,0.000000,,,,0.000000,4.000000,4.000000,4.000000,4.000000,4.000000,4.000000,4.000000,4.000000,4.000000,4.000000,4.000000,4.000000,4.000000,4.000000,100.000000,,,,,,,,,,,,,,,,,,,,,,,,,,,,,,,,,,,,,,,,,,,,,,,,,,,,,,,,,,,,,,,,,,,,,,,,,,,,,,,,,,,,,,,,,,,,,,,,,,,,,,,,,,,,,,,,,
1606530625.882023,120.000000,0.000000,4247.436035,4213.589844,4216.794922,4203.717773,4234.487305,4221.153809,4185.000000,4183.461426,4202.563965,4173.077148,4201.922852,4258.077148,4281.153809,4225.512695,3536.000000,0.000000,,,,0.000000,4.000000,4.000000,4.000000,4.000000,4.000000,4.000000,4.000000,4.000000,4.000000,4.000000,4.000000,4.000000,4.000000,4.000000,100.000000,30.000000,0.000000,0.690949,-0.345215,-0.610779,-0.174255,0.966323,-0.268070,0.010742,-32.300297,-117.088577,14.355688,,,,,,,,,,,,,,,,,,,,,,,,,,,,,,,,,,,,,,,,,,,,,,,,,,,,,,,,,,,,,,,,,,,,,,,,,,,,,,,,,,,,,,,,,,,,,,,,,,,,,
1606530625.889919,121.000000,0.000000,4246.922852,4215.000000,4215.769043,4200.128418,4235.128418,4214.871582,4184.102539,4180.897461,4198.333496,4168.461426,4192.307617,4261.794922,4282.051270,4230.256348,3354.000000,0.000000,,,,0.000000,4.000000,4.000000,4.000000,4.000000,4.000000,4.000000,4.000000,4.000000,4.000000,4.000000,4.000000,4.000000,4.000000,4.000000,100.000000,,,,,,,,,,,,,,,,,,,,,,,,,,,,,,,,,,,,,,,,,,,,,,,,,,,,,,,,,,,,,,,,,,,,,,,,,,,,,,,,,,,,,,,,,,,,,,,,,,,,,,,,,,,,,,,,,
1606530625.897615,122.000000,0.000000,4249.871582,4211.666504,4218.974121,4204.615234,4232.436035,4222.179688,4184.743652,4187.692383,4211.410156,4173.717773,4184.615234,4266.282227,4280.641113,4228.205078,3618.000000,0.000000,,,,0.000000,4.000000,4.000000,4.000000,4.000000,4.000000,4.000000,4.000000,4.000000,4.000000,4.000000,4.000000,4.000000,4.000000,4.000000,100.000000,,,,,,,,,,,,,,,,,,,,,,,,,,,,,,,,,,,,,,,,,,,,,,,,,,,,,,,,,,,,,,,,,,,,,,,,,,,,,,,,,,,,,,,,,,,,,,,,,,,,,,,,,,,,,,,,,
1606530625.905211,123.000000,0.000000,4255.384766,4210.000000,4220.769043,4210.897461,4232.436035,4229.743652,4186.410156,4200.000000,4219.102539,4183.461426,4199.871582,4267.179688,4278.333496,4233.846191,3530.000000,0.000000,,,,0.000000,4.000000,4.000000,4.000000,4.000000,4.000000,4.000000,4.000000,4.000000,4.000000,4.000000,4.000000,4.000000,4.000000,4.000000,100.000000,,,,,,,,,,,,,,,,,,,,,,,,,,,,,,,,,,,,,,,,,,,,,,,,,,,,,,,,,,,,,,,,,,,,,,,,,,,,,,,,,,,,,,,,,,,,,,,,,,,,,,,,,,,,,,,,,
1606530625.912906,124.000000,0.000000,4260.256348,4213.205078,4218.717773,4212.051270,4242.563965,4229.230957,4193.974121,4204.487305,4216.025879,4186.282227,4208.077148,4270.384766,4288.589844,4241.410156,3536.000000,0.000000,,,,0.000000,4.000000,4.000000,4.000000,4.000000,4.000000,4.000000,4.000000,4.000000,4.000000,4.000000,4.000000,4.000000,4.000000,4.000000,100.000000,31.000000,0.000000,0.691199,-0.349792,-0.605957,-0.180847,0.963882,-0.269047,0.017090,-31.403067,-117.836273,14.654764,,,,,,,,,,,,,,,,,,,,,,,,,,,,,,,,3.258480,4.009815,0.955580,0.347738,0.192287,5.071724,4.395860,1.251282,0.511081,0.217592,1.636693,1.948930,0.678739,0.252202,0.132437,2.549689,2.341504,0.618099,0.217706,0.116819,2.794107,1.015074,0.539534,0.333622,0.229877,4.341299,0.548366,0.442847,0.233654,0.137503,1.273617,0.887569,0.266181,0.170115,0.123210,2.372807,1.057266,0.694542,0.213211,0.255535,1.632025,0.995807,1.528899,0.320053,0.205931,1.362216,1.808721,1.115161,0.400972,0.291614,1.291870,2.555102,0.794886,0.465289,0.388725,1.765282,2.636560,0.898996,0.277520,0.235140,1.718923,2.276547,0.931745,0.499176,0.446644,1.392669,3.941004,1.165302,0.378426,0.359730
1606530625.920602,125.000000,0.000000,4261.025879,4216.538574,4222.948730,4211.794922,4250.512695,4233.974121,4203.333496,4203.333496,4220.256348,4187.820313,4197.563965,4274.230957,4296.794922,4238.205078,3354.000000,0.000000,,,,0.000000,4.000000,4.000000,4.000000,4.000000,4.000000,4.000000,4.000000,4.000000,4.000000,4.000000,4.000000,4.000000,4.000000,4.000000,100.000000,,,,,,,,,,,,,,,,,,,,,,,,,,,,,,,,,,,,,,,,,,,,,,,,,,,,,,,,,,,,,,,,,,,,,,,,,,,,,,,,,,,,,,,,,,,,,,,,,,,,,,,,,,,,,,,,,
1606530625.928298,126.000000,0.000000,4258.974121,4217.051270,4230.256348,4215.641113,4248.974121,4240.128418,4200.512695,4202.436035,4224.871582,4186.922852,4198.461426,4271.538574,4290.769043,4233.205078,3618.000000,0.000000,,,,0.000000,4.000000,4.000000,4.000000,4.000000,4.000000,4.000000,4.000000,4.000000,4.000000,4.000000,4.000000,4.000000,4.000000,4.000000,100.000000,,,,,,,,,,,,,,,,,,,,,,,,,,,,,,,,,,,,,,,,,,,,,,,,,,,,,,,,,,,,,,,,,,,,,,,,,,,,,,,,,,,,,,,,,,,,,,,,,,,,,,,,,,,,,,,,,
1606530625.936094,127.000000,0.000000,4252.692383,4216.538574,4228.589844,4218.077148,4245.384766,4230.512695,4194.102539,4197.179688,4217.563965,4182.820313,4204.615234,4261.153809,4288.846191,4228.589844,49.000000,0.000000,,,,0.000000,4.000000,4.000000,4.000000,4.000000,4.000000,4.000000,4.000000,4.000000,4.000000,4.000000,4.000000,4.000000,4.000000,4.000000,100.000000,,,,,,,,,,,,,,,,,,,,,,,,,,,,,,,,,,,,,,,,,,,,,,,,,,,,,,,,,,,,,,,,,,,,,,,,,,,,,,,,,,,,,,,,,,,,,,,,,,,,,,,,,,,,,,,,,
1606530625.943790,0.000000,0.000000,4246.666504,4218.205078,4226.025879,4216.666504,4247.692383,4222.051270,4199.230957,4193.846191,4216.410156,4181.794922,4200.641113,4253.717773,4294.487305,4218.717773,3482.000000,0.000000,,,,0.000000,4.000000,4.000000,4.000000,4.000000,4.000000,4.000000,4.000000,4.000000,4.000000,4.000000,4.000000,4.000000,4.000000,4.000000,100.000000,0.000000,0.000000,0.691472,-0.354004,-0.601196,-0.187378,1.002457,-0.269047,0.016602,-31.851683,-117.836273,14.654764,,,,,,,,,,,,,,,,,,,,,,,,,,,,,,,,,,,,,,,,,,,,,,,,,,,,,,,,,,,,,,,,,,,,,,,,,,,,,,,,,,,,,,,,,,,,,,,,,,,,,
1606530625.951486,1.000000,0.000000,4250.769043,4218.333496,4226.794922,4217.692383,4251.922852,4229.358887,4199.230957,4198.717773,4224.102539,4185.641113,4200.256348,4256.025879,4287.692383,4215.897461,3482.000000,0.000000,,,,0.000000,4.000000,4.000000,4.000000,4.000000,4.000000,4.000000,4.000000,4.000000,4.000000,4.000000,4.000000,4.000000,4.000000,4.000000,100.000000,,,,,,,,,,,,,,,,,,,,,,,,,,,,,,,,,,,,,,,,,,,,,,,,,,,,,,,,,,,,,,,,,,,,,,,,,,,,,,,,,,,,,,,,,,,,,,,,,,,,,,,,,,,,,,,,,
1606530625.959182,2.000000,0.000000,4261.666504,4217.179688,4223.333496,4216.922852,4250.512695,4234.615234,4190.000000,4200.769043,4224.102539,4186.410156,4199.487305,4263.717773,4285.128418,4230.128418,3610.000000,0.000000,,,,0.000000,4.000000,4.000000,4.000000,4.000000,4.000000,4.000000,4.000000,4.000000,4.000000,4.000000,4.000000,4.000000,4.000000,4.000000,100.000000,,,,,,,,,,,,,,,,,,,,,,,,,,,,,,,,,,,,,,,,,,,,,,,,,,,,,,,,,,,,,,,,,,,,,,,,,,,,,,,,,,,,,,,,,,,,,,,,,,,,,,,,,,,,,,,,,
1606530625.966978,3.000000,0.000000,4266.922852,4223.974121,4224.102539,4217.692383,4248.589844,4231.025879,4191.153809,4197.051270,4220.641113,4184.102539,4196.922852,4272.051270,4301.282227,4246.794922,3605.000000,0.000000,,,,0.000000,4.000000,4.000000,4.000000,4.000000,4.000000,4.000000,4.000000,4.000000,4.000000,4.000000,4.000000,4.000000,4.000000,4.000000,100.000000,,,,,,,,,,,,,,,,,,,,,,,,,,,,,,,,,,,,,,,,,,,,,,,,,,,,,,,,,,,,,,,,,,,,,,,,,,,,,,,,,,,,,,,,,,,,,,,,,,,,,,,,,,,,,,,,,
1606530625.974674,4.000000,0.000000,4265.897461,4232.692383,4233.461426,4226.282227,4253.589844,4234.102539,4201.025879,4197.820313,4222.179688,4186.922852,4209.615234,4278.717773,4309.358887,4253.333496,3665.000000,0.000000,,,,0.000000,4.000000,4.000000,4.000000,4.000000,4.000000,4.000000,4.000000,4.000000,4.000000,4.000000,4.000000,4.000000,4.000000,4.000000,100.000000,1.000000,0.000000,0.691360,-0.359192,-0.596375,-0.193237,1.000992,-0.268559,0.016114,-32.001221,-116.939041,14.056611,,,,,,,,,,,,,,,,,,,,,,,,,,,,,,,,,,,,,,,,,,,,,,,,,,,,,,,,,,,,,,,,,,,,,,,,,,,,,,,,,,,,,,,,,,,,,,,,,,,,,
1606530625.982569,5.000000,0.000000,4265.000000,4232.563965,4233.717773,4233.205078,4254.871582,4240.000000,4199.358887,4200.256348,4220.512695,4187.692383,4217.692383,4275.256348,4294.230957,4247.307617,3419.000000,0.000000,,,,0.000000,4.000000,4.000000,4.000000,4.000000,4.000000,4.000000,4.000000,4.000000,4.000000,4.000000,4.000000,4.000000,4.000000,4.000000,100.000000,,,,,,,,,,,,,,,,,,,,,,,,,,,,,,,,,,,,,,,,,,,,,,,,,,,,,,,,,,,,,,,,,,,,,,,,,,,,,,,,,,,,,,,,,,,,,,,,,,,,,,,,,,,,,,,,,
1606530625.990465,6.000000,0.000000,4266.666504,4230.384766,4230.897461,4229.230957,4248.717773,4236.922852,4188.589844,4196.922852,4214.487305,4178.205078,4201.153809,4264.743652,4278.333496,4234.487305,3074.000000,0.000000,,,,0.000000,4.000000,4.000000,4.000000,4.000000,4.000000,4.000000,4.000000,4.000000,4.000000,4.000000,4.000000,4.000000,4.000000,4.000000,100.000000,,,,,,,,,,,,,,,,,,,,,,,,,,,,,,,,,,,,,,,,,,,,,,,,,,,,,,,,,,,,,,,,,,,,,,,,,,,,,,,,,,,,,,,,,,,,,,,,,,,,,,,,,,,,,,,,,
1606530625.998461,7.000000,0.000000,4262.051270,4226.410156,4231.794922,4219.358887,4247.051270,4229.102539,4183.717773,4188.589844,4207.948730,4168.589844,4185.384766,4259.358887,4283.077148,4229.487305,3230.000000,0.000000,,,,0.000000,4.000000,4.000000,4.000000,4.000000,4.000000,4.000000,4.000000,4.000000,4.000000,4.000000,4.000000,4.000000,4.000000,4.000000,100.000000,,,,,,,,,,,,,,,,,,,,,,,,,,,,,,,,,,,,,,,,,,,,,,,,,,,,,,,,,,,,,,,,,,,,,,,,,,,,,,,,,,,,,,,,,,,,,,,,,,,,,,,,,,,,,,,,,
1606530626.006356,8.000000,0.000000,4250.000000,4213.461426,4223.205078,4211.666504,4246.410156,4220.000000,4182.820313,4183.333496,4201.025879,4166.410156,4185.000000,4261.922852,4287.051270,4229.102539,3316.000000,0.000000,,,,0.000000,4.000000,4.000000,4.000000,4.000000,4.000000,4.000000,4.000000,4.000000,4.000000,4.000000,4.000000,4.000000,4.000000,4.000000,100.000000,2.000000,0.000000,0.690619,-0.366516,-0.590576,-0.199829,0.977554,-0.265141,0.024414,-32.898453,-117.238113,13.757534,,,,,,,,,,,,,,,,,,,,,,,,,,,,,,,,,,,,,,,,,,,,,,,,,,,,,,,,,,,,,,,,,,,,,,,,,,,,,,,,,,,,,,,,,,,,,,,,,,,,,
1606530626.014252,9.000000,0.000000,4250.641113,4211.153809,4218.333496,4214.743652,4242.051270,4217.179688,4182.820313,4190.000000,4204.102539,4171.153809,4192.820313,4261.282227,4284.615234,4231.282227,3631.000000,0.000000,,,,0.000000,4.000000,4.000000,4.000000,4.000000,4.000000,4.000000,4.000000,4.000000,4.000000,4.000000,4.000000,4.000000,4.000000,4.000000,100.000000,,,,,,,,,,,,,,,,,,,,,,,,,,,,,,,,,,,,,,,,,,,,,,,,,,,,,,,,,,,,,,,,,,,,,,,,,,,,,,,,,,,,,,,,,,,,,,,,,,,,,,,,,,,,,,,,,
1606530626.021948,10.000000,0.000000,4261.025879,4226.794922,4226.538574,4226.538574,4244.743652,4222.179688,4184.743652,4201.666504,4213.333496,4177.820313,4197.436035,4261.153809,4281.538574,4239.358887,3620.000000,0.000000,,,,0.000000,4.000000,4.000000,4.000000,4.000000,4.000000,4.000000,4.000000,4.000000,4.000000,4.000000,4.000000,4.000000,4.000000,4.000000,100.000000,,,,,,,,,,,,,,,,,,,,,,,,,,,,,,,,,,,,,,,,,,,,,,,,,,,,,,,,,,,,,,,,,,,,,,,,,,,,,,,,,,,,,,,,,,,,,,,,,,,,,,,,,,,,,,,,,
1606530626.029744,11.000000,0.000000,4266.410156,4236.538574,4234.358887,4233.205078,4257.692383,4229.487305,4188.077148,4210.128418,4218.077148,4182.051270,4198.333496,4271.282227,4283.077148,4247.179688,3530.000000,0.000000,,,,0.000000,4.000000,4.000000,4.000000,4.000000,4.000000,4.000000,4.000000,4.000000,4.000000,4.000000,4.000000,4.000000,4.000000,4.000000,100.000000,,,,,,,,,,,,,,,,,,,,,,,,,,,,,,,,,,,,,,,,,,,,,,,,,,,,,,,,,,,,,,,,,,,,,,,,,,,,,,,,,,,,,,,,,,,,,,,,,,,,,,,,,,,,,,,,,
1606530626.037440,12.000000,0.000000,4274.871582,4236.025879,4237.948730,4233.589844,4268.333496,4233.333496,4190.256348,4214.358887,4226.666504,4190.897461,4207.948730,4282.948730,4305.769043,4251.794922,3536.000000,0.000000,,,,0.000000,4.000000,4.000000,4.000000,4.000000,4.000000,4.000000,4.000000,4.000000,4.000000,4.000000,4.000000,4.000000,4.000000,4.000000,100.000000,3.000000,0.000000,0.689637,-0.374878,-0.583740,-0.207642,0.970230,-0.275395,0.043458,-30.954453,-118.284889,15.402456,,,,,,,,,,,,,,,,,,,,,,,,,,,,,,,,3.447337,4.060450,0.824163,0.290446,0.214334,3.780747,3.524262,0.837436,0.348500,0.212630,1.651181,2.008699,0.529748,0.232275,0.136311,2.385018,2.027867,0.426607,0.163724,0.108981,2.783468,0.973011,0.463537,0.334172,0.238212,5.422866,0.608352,0.404985,0.270044,0.163106,1.411671,0.914526,0.290443,0.168499,0.120232,2.734636,1.184572,0.671419,0.213333,0.253493,2.067785,1.113878,1.301380,0.312355,0.229485,1.816469,2.023438,1.119847,0.413217,0.330937,1.822606,3.042183,0.823445,0.467674,0.418700,2.263630,2.831164,0.871612,0.271401,0.248621,2.400459,2.837852,0.806708,0.516547,0.514594,2.015356,3.950701,1.021811,0.328420,0.388226
1606530626.045136,13.000000,0.000000,4279.487305,4235.384766,4237.820313,4231.282227,4268.077148,4232.179688,4191.794922,4211.666504,4234.230957,4200.384766,4219.358887,4281.666504,4328.717773,4252.563965,3354.000000,0.000000,,,,0.000000,4.000000,4.000000,4.000000,4.000000,4.000000,4.000000,4.000000,4.000000,4.000000,4.000000,4.000000,4.000000,4.000000,4.000000,100.000000,,,,,,,,,,,,,,,,,,,,,,,,,,,,,,,,,,,,,,,,,,,,,,,,,,,,,,,,,,,,,,,,,,,,,,,,,,,,,,,,,,,,,,,,,,,,,,,,,,,,,,,,,,,,,,,,,
1606530626.052831,14.000000,0.000000,4267.436035,4235.641113,4233.974121,4228.589844,4264.358887,4238.461426,4197.436035,4213.846191,4233.205078,4201.153809,4217.051270,4279.615234,4322.948730,4254.358887,3620.000000,0.000000,,,,0.000000,4.000000,4.000000,4.000000,4.000000,4.000000,4.000000,4.000000,4.000000,4.000000,4.000000,4.000000,4.000000,4.000000,4.000000,100.000000,,,,,,,,,,,,,,,,,,,,,,,,,,,,,,,,,,,,,,,,,,,,,,,,,,,,,,,,,,,,,,,,,,,,,,,,,,,,,,,,,,,,,,,,,,,,,,,,,,,,,,,,,,,,,,,,,
1606530626.060627,15.000000,0.000000,4259.102539,4233.589844,4232.563965,4229.487305,4265.897461,4245.256348,4203.205078,4228.077148,4233.077148,4202.692383,4214.871582,4284.102539,4311.153809,4254.871582,3530.000000,0.000000,,,,0.000000,4.000000,4.000000,4.000000,4.000000,4.000000,4.000000,4.000000,4.000000,4.000000,4.000000,4.000000,4.000000,4.000000,4.000000,100.000000,,,,,,,,,,,,,,,,,,,,,,,,,,,,,,,,,,,,,,,,,,,,,,,,,,,,,,,,,,,,,,,,,,,,,,,,,,,,,,,,,,,,,,,,,,,,,,,,,,,,,,,,,,,,,,,,,
1606530626.068523,16.000000,0.000000,4265.512695,4230.769043,4234.487305,4231.282227,4262.820313,4240.000000,4204.358887,4233.974121,4238.461426,4207.307617,4220.897461,4284.102539,4320.769043,4252.948730,0.000000,0.000000,,,,0.000000,4.000000,4.000000,4.000000,4.000000,4.000000,4.000000,4.000000,4.000000,4.000000,4.000000,4.000000,4.000000,4.000000,4.000000,100.000000,4.000000,0.000000,0.688846,-0.382751,-0.576599,-0.215698,0.974136,-0.286137,0.039063,-32.599373,-117.387657,16.150148,,,,,,,,,,,,,,,,,,,,,,,,,,,,,,,,,,,,,,,,,,,,,,,,,,,,,,,,,,,,,,,,,,,,,,,,,,,,,,,,,,,,,,,,,,,,,,,,,,,,,
1606530626.076219,17.000000,0.000000,4262.051270,4226.153809,4232.820313,4225.769043,4253.974121,4232.948730,4200.897461,4224.102539,4232.179688,4201.666504,4218.974121,4278.589844,4319.871582,4248.461426,0.000000,0.000000,,,,0.000000,4.000000,4.000000,4.000000,4.000000,4.000000,4.000000,4.000000,4.000000,4.000000,4.000000,4.000000,4.000000,4.000000,4.000000,100.000000,,,,,,,,,,,,,,,,,,,,,,,,,,,,,,,,,,,,,,,,,,,,,,,,,,,,,,,,,,,,,,,,,,,,,,,,,,,,,,,,,,,,,,,,,,,,,,,,,,,,,,,,,,,,,,,,,
1606530626.083915,18.000000,0.000000,4250.512695,4220.000000,4226.922852,4217.563965,4245.128418,4235.384766,4199.615234,4217.563965,4219.358887,4197.051270,4210.641113,4273.974121,4299.615234,4242.051270,0.000000,0.000000,,,,0.000000,4.000000,4.000000,4.000000,4.000000,4.000000,4.000000,4.000000,4.000000,4.000000,4.000000,4.000000,4.000000,4.000000,4.000000,100.000000,,,,,,,,,,,,,,,,,,,,,,,,,,,,,,,,,,,,,,,,,,,,,,,,,,,,,,,,,,,,,,,,,,,,,,,,,,,,,,,,,,,,,,,,,,,,,,,,,,,,,,,,,,,,,,,,,
1606530626.091711,19.000000,0.000000,4246.666504,4217.307617,4220.512695,4216.538574,4238.333496,4236.538574,4201.794922,4220.000000,4217.179688,4198.974121,4201.922852,4266.666504,4291.922852,4234.102539,0.000000,0.000000,,,,0.000000,4.000000,4.000000,4.000000,4.000000,4.000000,4.000000,4.000000,4.000000,4.000000,4.000000,4.000000,4.000000,4.000000,4.000000,100.000000,,,,,,,,,,,,,,,,,,,,,,,,,,,,,,,,,,,,,,,,,,,,,,,,,,,,,,,,,,,,,,,,,,,,,,,,,,,,,,,,,,,,,,,,,,,,,,,,,,,,,,,,,,,,,,,,,
1606530626.099606,20.000000,0.000000,4247.820313,4216.922852,4223.205078,4219.102539,4233.333496,4232.820313,4199.615234,4216.410156,4218.589844,4193.077148,4198.333496,4259.358887,4296.025879,4227.307617,0.000000,0.000000,,,,0.000000,4.000000,4.000000,4.000000,4.000000,4.000000,4.000000,4.000000,4.000000,4.000000,4.000000,4.000000,4.000000,4.000000,4.000000,100.000000,5.000000,0.000000,0.688350,-0.386963,-0.572754,-0.219971,0.960952,-0.291508,0.039063,-31.851683,-118.583961,17.047379,,,,,,,,,,,,,,,,,,,,,,,,,,,,,,,,,,,,,,,,,,,,,,,,,,,,,,,,,,,,,,,,,,,,,,,,,,,,,,,,,,,,,,,,,,,,,,,,,,,,,
1606530626.107502,21.000000,0.000000,4249.487305,4217.692383,4227.051270,4218.974121,4230.256348,4231.538574,4195.384766,4204.871582,4216.282227,4186.025879,4201.794922,4259.102539,4295.512695,4229.743652,0.000000,0.000000,,,,0.000000,4.000000,4.000000,4.000000,4.000000,4.000000,4.000000,4.000000,4.000000,4.000000,4.000000,4.000000,4.000000,4.000000,4.000000,100.000000,,,,,,,,,,,,,,,,,,,,,,,,,,,,,,,,,,,,,,,,,,,,,,,,,,,,,,,,,,,,,,,,,,,,,,,,,,,,,,,,,,,,,,,,,,,,,,,,,,,,,,,,,,,,,,,,,
1606530626.115398,22.000000,0.000000,4245.769043,4217.563965,4218.846191,4213.077148,4226.282227,4223.333496,4193.205078,4199.487305,4210.512695,4185.000000,4198.717773,4259.743652,4288.461426,4235.000000,0.000000,0.000000,,,,0.000000,4.000000,4.000000,4.000000,4.000000,4.000000,4.000000,4.000000,4.000000,4.000000,4.000000,4.000000,4.000000,4.000000,4.000000,100.000000,,,,,,,,,,,,,,,,,,,,,,,,,,,,,,,,,,,,,,,,,,,,,,,,,,,,,,,,,,,,,,,,,,,,,,,,,,,,,,,,,,,,,,,,,,,,,,,,,,,,,,,,,,,,,,,,,
1606530626.123393,23.000000,0.000000,4237.179688,4212.563965,4213.077148,4207.051270,4221.666504,4217.307617,4191.025879,4201.282227,4205.897461,4183.205078,4193.333496,4253.077148,4290.128418,4237.436035,0.000000,0.000000,,,,0.000000,4.000000,4.000000,4.000000,4.000000,4.000000,4.000000,4.000000,4.000000,4.000000,4.000000,4.000000,4.000000,4.000000,4.000000,100.000000,,,,,,,,,,,,,,,,,,,,,,,,,,,,,,,,,,,,,,,,,,,,,,,,,,,,,,,,,,,,,,,,,,,,,,,,,,,,,,,,,,,,,,,,,,,,,,,,,,,,,,,,,,,,,,,,,
1606530626.131289,24.000000,0.000000,4229.487305,4203.205078,4210.128418,4198.333496,4217.179688,4224.230957,4189.102539,4202.307617,4199.871582,4177.948730,4190.000000,4246.666504,4290.000000,4227.179688,0.000000,0.000000,,,,0.000000,4.000000,4.000000,4.000000,4.000000,4.000000,4.000000,4.000000,4.000000,4.000000,4.000000,4.000000,4.000000,4.000000,4.000000,100.000000,6.000000,0.000000,0.687021,-0.396240,-0.564331,-0.229187,0.970718,-0.287602,0.059083,-33.496605,-119.331657,15.851072,,,,,,,,,,,,,,,,,,,,,,,,,,,,,,,,,,,,,,,,,,,,,,,,,,,,,,,,,,,,,,,,,,,,,,,,,,,,,,,,,,,,,,,,,,,,,,,,,,,,,
1606530626.139185,25.000000,0.000000,4227.820313,4196.922852,4203.846191,4189.487305,4212.820313,4226.666504,4189.487305,4206.666504,4199.230957,4176.794922,4188.589844,4244.102539,4280.128418,4214.487305,0.000000,0.000000,,,,0.000000,4.000000,4.000000,4.000000,4.000000,4.000000,4.000000,4.000000,4.000000,4.000000,4.000000,4.000000,4.000000,4.000000,4.000000,100.000000,,,,,,,,,,,,,,,,,,,,,,,,,,,,,,,,,,,,,,,,,,,,,,,,,,,,,,,,,,,,,,,,,,,,,,,,,,,,,,,,,,,,,,,,,,,,,,,,,,,,,,,,,,,,,,,,,
1606530626.147080,26.000000,0.000000,4228.974121,4198.717773,4207.051270,4190.128418,4215.128418,4218.461426,4189.487305,4214.615234,4210.384766,4184.102539,4191.025879,4245.128418,4284.230957,4221.666504,0.000000,0.000000,,,,0.000000,4.000000,4.000000,4.000000,4.000000,4.000000,4.000000,4.000000,4.000000,4.000000,4.000000,4.000000,4.000000,4.000000,4.000000,100.000000,,,,,,,,,,,,,,,,,,,,,,,,,,,,,,,,,,,,,,,,,,,,,,,,,,,,,,,,,,,,,,,,,,,,,,,,,,,,,,,,,,,,,,,,,,,,,,,,,,,,,,,,,,,,,,,,,
1606530626.155076,27.000000,0.000000,4231.794922,4202.563965,4214.743652,4196.410156,4222.948730,4214.871582,4186.025879,4214.358887,4218.846191,4193.077148,4191.794922,4253.461426,4292.307617,4237.820313,0.000000,0.000000,,,,0.000000,4.000000,4.000000,4.000000,4.000000,4.000000,4.000000,4.000000,4.000000,4.000000,4.000000,4.000000,4.000000,4.000000,4.000000,100.000000,,,,,,,,,,,,,,,,,,,,,,,,,,,,,,,,,,,,,,,,,,,,,,,,,,,,,,,,,,,,,,,,,,,,,,,,,,,,,,,,,,,,,,,,,,,,,,,,,,,,,,,,,,,,,,,,,
1606530626.162972,28.000000,0.000000,4240.000000,4203.974121,4214.871582,4200.641113,4227.179688,4217.820313,4182.820313,4207.820313,4218.461426,4192.051270,4193.589844,4264.358887,4288.333496,4241.025879,0.000000,0.000000,,,,0.000000,4.000000,4.000000,4.000000,4.000000,4.000000,4.000000,4.000000,4.000000,4.000000,4.000000,4.000000,4.000000,4.000000,4.000000,100.000000,7.000000,0.000000,0.685479,-0.405945,-0.555237,-0.238831,0.982437,-0.288090,0.060548,-32.599373,-119.331657,15.103380,,,,,,,,,,,,,,,,,,,,,,,,,,,,,,,,3.892917,4.002795,0.753954,0.261762,0.240791,2.762057,2.691830,0.554907,0.241542,0.220141,1.721145,1.967805,0.427064,0.217102,0.137884,2.131859,1.650225,0.289493,0.127116,0.107734,2.630655,0.941148,0.426834,0.348765,0.242182,6.496841,0.705529,0.385122,0.309018,0.191353,1.586249,1.023066,0.317066,0.181594,0.115218,3.118926,1.354966,0.669002,0.233567,0.243642,2.512684,1.243800,1.090992,0.323907,0.257148,2.340228,2.150593,1.029639,0.460174,0.369248,2.498666,3.300972,0.878390,0.504460,0.453690,2.830605,2.796725,0.816963,0.289054,0.250921,3.282293,3.271808,0.753818,0.566008,0.594536,2.706059,3.660612,0.915281,0.295965,0.403374
1606530626.170668,29.000000,0.000000,4246.410156,4204.615234,4215.897461,4201.282227,4229.871582,4216.282227,4183.077148,4206.153809,4219.358887,4187.179688,4204.358887,4262.820313,4290.897461,4236.666504,0.000000,0.000000,,,,0.000000,4.000000,4.000000,4.000000,4.000000,4.000000,4.000000,4.000000,4.000000,4.000000,4.000000,4.000000,4.000000,4.000000,4.000000,100.000000,,,,,,,,,,,,,,,,,,,,,,,,,,,,,,,,,,,,,,,,,,,,,,,,,,,,,,,,,,,,,,,,,,,,,,,,,,,,,,,,,,,,,,,,,,,,,,,,,,,,,,,,,,,,,,,,,
1606530626.178364,30.000000,0.000000,4242.051270,4203.717773,4217.948730,4198.205078,4227.948730,4212.948730,4185.897461,4204.358887,4218.717773,4187.563965,4208.077148,4254.871582,4294.743652,4236.153809,0.000000,0.000000,,,,0.000000,4.000000,4.000000,4.000000,4.000000,4.000000,4.000000,4.000000,4.000000,4.000000,4.000000,4.000000,4.000000,4.000000,4.000000,100.000000,,,,,,,,,,,,,,,,,,,,,,,,,,,,,,,,,,,,,,,,,,,,,,,,,,,,,,,,,,,,,,,,,,,,,,,,,,,,,,,,,,,,,,,,,,,,,,,,,,,,,,,,,,,,,,,,,
1606530626.186159,31.000000,0.000000,4233.077148,4200.384766,4212.436035,4194.743652,4219.102539,4212.307617,4183.077148,4197.436035,4207.179688,4181.794922,4194.487305,4244.615234,4282.692383,4227.051270,0.000000,0.000000,,,,0.000000,4.000000,4.000000,4.000000,4.000000,4.000000,4.000000,4.000000,4.000000,4.000000,4.000000,4.000000,4.000000,4.000000,4.000000,100.000000,,,,,,,,,,,,,,,,,,,,,,,,,,,,,,,,,,,,,,,,,,,,,,,,,,,,,,,,,,,,,,,,,,,,,,,,,,,,,,,,,,,,,,,,,,,,,,,,,,,,,,,,,,,,,,,,,
1606530626.194055,32.000000,0.000000,4233.333496,4200.000000,4209.615234,4195.000000,4211.538574,4213.974121,4176.153809,4194.487305,4202.563965,4172.692383,4193.333496,4234.102539,4274.102539,4211.794922,0.000000,0.000000,,,,0.000000,4.000000,4.000000,4.000000,4.000000,4.000000,4.000000,4.000000,4.000000,4.000000,4.000000,4.000000,4.000000,4.000000,4.000000,100.000000,8.000000,0.000000,0.684094,-0.413696,-0.547729,-0.246704,0.983413,-0.303227,0.080568,-32.599373,-120.079346,17.047379,,,,,,,,,,,,,,,,,,,,,,,,,,,,,,,,,,,,,,,,,,,,,,,,,,,,,,,,,,,,,,,,,,,,,,,,,,,,,,,,,,,,,,,,,,,,,,,,,,,,,
1606530626.201951,33.000000,0.000000,4236.666504,4201.153809,4211.794922,4195.384766,4213.589844,4216.282227,4173.846191,4197.563965,4207.948730,4171.282227,4198.461426,4235.897461,4279.230957,4211.025879,0.000000,0.000000,,,,0.000000,4.000000,4.000000,4.000000,4.000000,4.000000,4.000000,4.000000,4.000000,4.000000,4.000000,4.000000,4.000000,4.000000,4.000000,100.000000,,,,,,,,,,,,,,,,,,,,,,,,,,,,,,,,,,,,,,,,,,,,,,,,,,,,,,,,,,,,,,,,,,,,,,,,,,,,,,,,,,,,,,,,,,,,,,,,,,,,,,,,,,,,,,,,,
1606530626.209847,34.000000,0.000000,4234.487305,4200.384766,4207.692383,4190.769043,4216.282227,4216.794922,4178.717773,4199.358887,4206.410156,4173.461426,4192.563965,4243.589844,4281.538574,4220.384766,0.000000,0.000000,,,,0.000000,4.000000,4.000000,4.000000,4.000000,4.000000,4.000000,4.000000,4.000000,4.000000,4.000000,4.000000,4.000000,4.000000,4.000000,100.000000,,,,,,,,,,,,,,,,,,,,,,,,,,,,,,,,,,,,,,,,,,,,,,,,,,,,,,,,,,,,,,,,,,,,,,,,,,,,,,,,,,,,,,,,,,,,,,,,,,,,,,,,,,,,,,,,,
1606530626.217542,35.000000,0.000000,4232.051270,4198.974121,4203.333496,4190.256348,4215.256348,4218.717773,4181.666504,4199.743652,4203.461426,4171.025879,4185.384766,4240.641113,4276.538574,4218.589844,0.000000,0.000000,,,,0.000000,4.000000,4.000000,4.000000,4.000000,4.000000,4.000000,4.000000,4.000000,4.000000,4.000000,4.000000,4.000000,4.000000,4.000000,100.000000,,,,,,,,,,,,,,,,,,,,,,,,,,,,,,,,,,,,,,,,,,,,,,,,,,,,,,,,,,,,,,,,,,,,,,,,,,,,,,,,,,,,,,,,,,,,,,,,,,,,,,,,,,,,,,,,,
1606530626.225438,36.000000,0.000000,4232.563965,4198.205078,4205.512695,4194.487305,4215.128418,4219.230957,4177.179688,4201.538574,4205.128418,4165.384766,4179.871582,4233.974121,4273.205078,4213.589844,0.000000,0.000000,,,,0.000000,4.000000,4.000000,4.000000,4.000000,4.000000,4.000000,4.000000,4.000000,4.000000,4.000000,4.000000,4.000000,4.000000,4.000000,100.000000,9.000000,0.000000,0.682589,-0.421021,-0.540833,-0.253601,0.964370,-0.290532,0.072267,-30.804913,-118.733498,17.944611,,,,,,,,,,,,,,,,,,,,,,,,,,,,,,,,,,,,,,,,,,,,,,,,,,,,,,,,,,,,,,,,,,,,,,,,,,,,,,,,,,,,,,,,,,,,,,,,,,,,,
1606530626.233334,37.000000,0.000000,4233.846191,4197.307617,4205.512695,4193.846191,4214.871582,4215.769043,4169.871582,4198.846191,4202.820313,4157.051270,4174.871582,4233.333496,4272.563965,4213.846191,0.000000,0.000000,,,,0.000000,4.000000,4.000000,4.000000,4.000000,4.000000,4.000000,4.000000,4.000000,4.000000,4.000000,4.000000,4.000000,4.000000,4.000000,100.000000,,,,,,,,,,,,,,,,,,,,,,,,,,,,,,,,,,,,,,,,,,,,,,,,,,,,,,,,,,,,,,,,,,,,,,,,,,,,,,,,,,,,,,,,,,,,,,,,,,,,,,,,,,,,,,,,,
1606530626.241030,38.000000,0.000000,4234.487305,4196.538574,4201.153809,4189.358887,4216.282227,4219.102539,4168.717773,4195.384766,4198.333496,4152.820313,4171.922852,4233.333496,4268.205078,4208.717773,0.000000,0.000000,,,,0.000000,4.000000,4.000000,4.000000,4.000000,4.000000,4.000000,4.000000,4.000000,4.000000,4.000000,4.000000,4.000000,4.000000,4.000000,100.000000,,,,,,,,,,,,,,,,,,,,,,,,,,,,,,,,,,,,,,,,,,,,,,,,,,,,,,,,,,,,,,,,,,,,,,,,,,,,,,,,,,,,,,,,,,,,,,,,,,,,,,,,,,,,,,,,,
1606530626.248626,39.000000,0.000000,4233.589844,4196.922852,4200.128418,4190.512695,4217.692383,4232.563965,4177.692383,4199.487305,4204.743652,4156.410156,4175.000000,4232.051270,4263.077148,4209.615234,0.000000,0.000000,,,,0.000000,4.000000,4.000000,4.000000,4.000000,4.000000,4.000000,4.000000,4.000000,4.000000,4.000000,4.000000,4.000000,4.000000,4.000000,100.000000,,,,,,,,,,,,,,,,,,,,,,,,,,,,,,,,,,,,,,,,,,,,,,,,,,,,,,,,,,,,,,,,,,,,,,,,,,,,,,,,,,,,,,,,,,,,,,,,,,,,,,,,,,,,,,,,,
1606530626.256322,40.000000,0.000000,4231.922852,4199.358887,4201.666504,4196.794922,4215.769043,4241.538574,4186.153809,4203.333496,4213.461426,4156.538574,4180.256348,4234.230957,4271.025879,4217.563965,0.000000,0.000000,,,,0.000000,4.000000,4.000000,4.000000,4.000000,4.000000,4.000000,4.000000,4.000000,4.000000,4.000000,4.000000,4.000000,4.000000,4.000000,100.000000,10.000000,0.000000,0.680835,-0.428345,-0.534180,-0.260071,0.956069,-0.314458,0.078126,-32.599373,-120.079346,18.542763,,,,,,,,,,,,,,,,,,,,,,,,,,,,,,,,,,,,,,,,,,,,,,,,,,,,,,,,,,,,,,,,,,,,,,,,,,,,,,,,,,,,,,,,,,,,,,,,,,,,,
1606530626.264018,41.000000,0.000000,4234.358887,4203.077148,4203.205078,4200.512695,4215.897461,4236.666504,4185.512695,4202.307617,4212.692383,4158.333496,4187.179688,4240.769043,4280.769043,4219.358887,0.000000,0.000000,,,,0.000000,4.000000,4.000000,4.000000,4.000000,4.000000,4.000000,4.000000,4.000000,4.000000,4.000000,4.000000,4.000000,4.000000,4.000000,100.000000,,,,,,,,,,,,,,,,,,,,,,,,,,,,,,,,,,,,,,,,,,,,,,,,,,,,,,,,,,,,,,,,,,,,,,,,,,,,,,,,,,,,,,,,,,,,,,,,,,,,,,,,,,,,,,,,,
1606530626.271714,42.000000,0.000000,4236.410156,4203.589844,4205.128418,4202.179688,4216.153809,4231.153809,4183.205078,4201.153809,4212.307617,4167.820313,4188.717773,4242.948730,4278.589844,4218.077148,0.000000,0.000000,,,,0.000000,4.000000,4.000000,4.000000,4.000000,4.000000,4.000000,4.000000,4.000000,4.000000,4.000000,4.000000,4.000000,4.000000,4.000000,100.000000,,,,,,,,,,,,,,,,,,,,,,,,,,,,,,,,,,,,,,,,,,,,,,,,,,,,,,,,,,,,,,,,,,,,,,,,,,,,,,,,,,,,,,,,,,,,,,,,,,,,,,,,,,,,,,,,,
1606530626.279509,43.000000,0.000000,4228.974121,4202.820313,4205.512695,4200.641113,4219.871582,4239.615234,4185.256348,4202.692383,4216.794922,4172.820313,4189.615234,4235.897461,4280.512695,4215.769043,0.000000,0.000000,,,,0.000000,4.000000,4.000000,4.000000,4.000000,4.000000,4.000000,4.000000,4.000000,4.000000,4.000000,4.000000,4.000000,4.000000,4.000000,100.000000,,,,,,,,,,,,,,,,,,,,,,,,,,,,,,,,,,,,,,,,,,,,,,,,,,,,,,,,,,,,,,,,,,,,,,,,,,,,,,,,,,,,,,,,,,,,,,,,,,,,,,,,,,,,,,,,,
1606530626.287205,44.000000,0.000000,4218.717773,4203.974121,4203.077148,4196.025879,4225.128418,4247.307617,4184.487305,4202.179688,4218.717773,4172.051270,4185.897461,4232.820313,4281.025879,4204.871582,0.000000,0.000000,,,,0.000000,4.000000,4.000000,4.000000,4.000000,4.000000,4.000000,4.000000,4.000000,4.000000,4.000000,4.000000,4.000000,4.000000,4.000000,100.000000,11.000000,0.000000,0.678793,-0.436157,-0.527161,-0.266663,0.958511,-0.326665,0.082033,-32.300297,-120.827042,18.542763,,,,,,,,,,,,,,,,,,,,,,,,,,,,,,,,4.384424,3.844260,0.770101,0.265720,0.265442,2.112225,2.091658,0.464105,0.205340,0.238343,1.796022,1.825194,0.390592,0.214254,0.138071,1.823644,1.300238,0.239508,0.113363,0.113321,2.380546,0.948335,0.433159,0.376643,0.239706,7.268576,0.864956,0.396330,0.341923,0.217676,1.773151,1.217794,0.341886,0.206704,0.109450,3.466810,1.583901,0.664622,0.268434,0.232479,2.862763,1.389505,0.911280,0.356020,0.283355,2.751872,2.196340,0.858760,0.534009,0.399020,3.108749,3.280267,0.942133,0.560322,0.486468,3.345191,2.549277,0.762640,0.329625,0.243599,4.152523,3.520222,0.769226,0.630637,0.677939,3.285177,3.154186,0.857353,0.294025,0.402434
1606530626.294901,45.000000,0.000000,4215.897461,4201.794922,4201.794922,4196.922852,4223.333496,4245.256348,4179.871582,4199.615234,4214.358887,4169.743652,4171.282227,4231.282227,4269.230957,4195.512695,0.000000,0.000000,,,,0.000000,4.000000,4.000000,4.000000,4.000000,4.000000,4.000000,4.000000,4.000000,4.000000,4.000000,4.000000,4.000000,4.000000,4.000000,100.000000,,,,,,,,,,,,,,,,,,,,,,,,,,,,,,,,,,,,,,,,,,,,,,,,,,,,,,,,,,,,,,,,,,,,,,,,,,,,,,,,,,,,,,,,,,,,,,,,,,,,,,,,,,,,,,,,,
1606530626.302597,46.000000,0.000000,4217.179688,4198.846191,4198.205078,4196.410156,4217.948730,4244.230957,4181.922852,4206.410156,4213.717773,4167.179688,4173.846191,4226.666504,4260.256348,4195.769043,0.000000,0.000000,,,,0.000000,4.000000,4.000000,4.000000,4.000000,4.000000,4.000000,4.000000,4.000000,4.000000,4.000000,4.000000,4.000000,4.000000,4.000000,100.000000,,,,,,,,,,,,,,,,,,,,,,,,,,,,,,,,,,,,,,,,,,,,,,,,,,,,,,,,,,,,,,,,,,,,,,,,,,,,,,,,,,,,,,,,,,,,,,,,,,,,,,,,,,,,,,,,,
1606530626.310393,47.000000,0.000000,4215.256348,4200.128418,4190.000000,4190.128418,4216.794922,4248.461426,4185.769043,4214.230957,4218.974121,4168.333496,4184.487305,4226.794922,4264.615234,4198.205078,0.000000,0.000000,,,,0.000000,4.000000,4.000000,4.000000,4.000000,4.000000,4.000000,4.000000,4.000000,4.000000,4.000000,4.000000,4.000000,4.000000,4.000000,100.000000,,,,,,,,,,,,,,,,,,,,,,,,,,,,,,,,,,,,,,,,,,,,,,,,,,,,,,,,,,,,,,,,,,,,,,,,,,,,,,,,,,,,,,,,,,,,,,,,,,,,,,,,,,,,,,,,,
1606530626.318089,48.000000,0.000000,4208.717773,4195.897461,4187.051270,4184.358887,4212.307617,4251.153809,4185.384766,4208.077148,4215.897461,4165.384766,4174.358887,4224.871582,4265.128418,4200.256348,0.000000,0.000000,,,,0.000000,4.000000,4.000000,4.000000,4.000000,4.000000,4.000000,4.000000,4.000000,4.000000,4.000000,4.000000,4.000000,4.000000,4.000000,100.000000,12.000000,0.000000,0.676466,-0.444458,-0.519470,-0.273865,0.955581,-0.328618,0.081056,-32.449837,-120.677498,18.393225,,,,,,,,,,,,,,,,,,,,,,,,,,,,,,,,,,,,,,,,,,,,,,,,,,,,,,,,,,,,,,,,,,,,,,,,,,,,,,,,,,,,,,,,,,,,,,,,,,,,,
1606530626.325785,49.000000,0.000000,4205.512695,4189.615234,4187.563965,4182.051270,4205.897461,4244.615234,4183.846191,4198.717773,4203.974121,4153.461426,4162.179688,4216.538574,4255.128418,4198.717773,0.000000,0.000000,,,,0.000000,4.000000,4.000000,4.000000,4.000000,4.000000,4.000000,4.000000,4.000000,4.000000,4.000000,4.000000,4.000000,4.000000,4.000000,100.000000,,,,,,,,,,,,,,,,,,,,,,,,,,,,,,,,,,,,,,,,,,,,,,,,,,,,,,,,,,,,,,,,,,,,,,,,,,,,,,,,,,,,,,,,,,,,,,,,,,,,,,,,,,,,,,,,,
1606530626.333481,50.000000,0.000000,4211.538574,4194.358887,4186.410156,4183.077148,4211.410156,4238.461426,4185.897461,4201.538574,4204.871582,4155.256348,4167.563965,4217.179688,4250.641113,4196.922852,0.000000,0.000000,,,,0.000000,4.000000,4.000000,4.000000,4.000000,4.000000,4.000000,4.000000,4.000000,4.000000,4.000000,4.000000,4.000000,4.000000,4.000000,100.000000,,,,,,,,,,,,,,,,,,,,,,,,,,,,,,,,,,,,,,,,,,,,,,,,,,,,,,,,,,,,,,,,,,,,,,,,,,,,,,,,,,,,,,,,,,,,,,,,,,,,,,,,,,,,,,,,,
1606530626.341276,51.000000,0.000000,4216.410156,4203.333496,4191.922852,4185.769043,4216.794922,4239.102539,4185.512695,4207.051270,4215.512695,4166.922852,4170.512695,4219.487305,4259.615234,4196.025879,0.000000,0.000000,,,,0.000000,4.000000,4.000000,4.000000,4.000000,4.000000,4.000000,4.000000,4.000000,4.000000,4.000000,4.000000,4.000000,4.000000,4.000000,100.000000,,,,,,,,,,,,,,,,,,,,,,,,,,,,,,,,,,,,,,,,,,,,,,,,,,,,,,,,,,,,,,,,,,,,,,,,,,,,,,,,,,,,,,,,,,,,,,,,,,,,,,,,,,,,,,,,,
1606530626.348972,52.000000,0.000000,4217.692383,4207.179688,4199.871582,4192.948730,4216.666504,4244.615234,4185.384766,4213.205078,4218.205078,4170.128418,4173.077148,4216.282227,4274.871582,4195.769043,0.000000,0.000000,,,,0.000000,4.000000,4.000000,4.000000,4.000000,4.000000,4.000000,4.000000,4.000000,4.000000,4.000000,4.000000,4.000000,4.000000,4.000000,100.000000,13.000000,0.000000,0.675286,-0.448547,-0.515564,-0.277466,0.969741,-0.317876,0.096681,-32.599373,-120.827042,17.795071,,,,,,,,,,,,,,,,,,,,,,,,,,,,,,,,,,,,,,,,,,,,,,,,,,,,,,,,,,,,,,,,,,,,,,,,,,,,,,,,,,,,,,,,,,,,,,,,,,,,,
1606530626.356668,53.000000,0.000000,4226.666504,4214.615234,4203.846191,4201.410156,4226.922852,4246.794922,4190.769043,4225.512695,4221.025879,4178.461426,4185.769043,4223.974121,4281.922852,4204.487305,0.000000,0.000000,,,,0.000000,4.000000,4.000000,4.000000,4.000000,4.000000,4.000000,4.000000,4.000000,4.000000,4.000000,4.000000,4.000000,4.000000,4.000000,100.000000,,,,,,,,,,,,,,,,,,,,,,,,,,,,,,,,,,,,,,,,,,,,,,,,,,,,,,,,,,,,,,,,,,,,,,,,,,,,,,,,,,,,,,,,,,,,,,,,,,,,,,,,,,,,,,,,,
1606530626.364364,54.000000,0.000000,4235.769043,4220.641113,4208.205078,4203.333496,4235.000000,4241.922852,4189.487305,4225.769043,4222.563965,4186.282227,4189.487305,4235.512695,4277.307617,4215.641113,0.000000,0.000000,,,,0.000000,4.000000,4.000000,4.000000,4.000000,4.000000,4.000000,4.000000,4.000000,4.000000,4.000000,4.000000,4.000000,4.000000,4.000000,100.000000,,,,,,,,,,,,,,,,,,,,,,,,,,,,,,,,,,,,,,,,,,,,,,,,,,,,,,,,,,,,,,,,,,,,,,,,,,,,,,,,,,,,,,,,,,,,,,,,,,,,,,,,,,,,,,,,,
1606530626.372160,55.000000,0.000000,4233.589844,4218.846191,4210.000000,4204.487305,4229.102539,4244.871582,4184.358887,4213.717773,4219.358887,4177.179688,4185.256348,4233.846191,4274.487305,4218.461426,0.000000,0.000000,,,,0.000000,4.000000,4.000000,4.000000,4.000000,4.000000,4.000000,4.000000,4.000000,4.000000,4.000000,4.000000,4.000000,4.000000,4.000000,100.000000,,,,,,,,,,,,,,,,,,,,,,,,,,,,,,,,,,,,,,,,,,,,,,,,,,,,,,,,,,,,,,,,,,,,,,,,,,,,,,,,,,,,,,,,,,,,,,,,,,,,,,,,,,,,,,,,,
1606530626.379856,56.000000,0.000000,4232.692383,4224.358887,4210.000000,4212.692383,4228.846191,4257.563965,4191.666504,4215.512695,4224.487305,4175.000000,4184.102539,4230.256348,4283.077148,4212.692383,0.000000,0.000000,,,,0.000000,4.000000,4.000000,4.000000,4.000000,4.000000,4.000000,4.000000,4.000000,4.000000,4.000000,4.000000,4.000000,4.000000,4.000000,100.000000,14.000000,0.000000,0.673410,-0.454956,-0.508972,-0.283691,0.955581,-0.322759,0.092775,-32.449837,-121.126114,18.692303,,,,,,,,,,,,,,,,,,,,,,,,,,,,,,,,,,,,,,,,,,,,,,,,,,,,,,,,,,,,,,,,,,,,,,,,,,,,,,,,,,,,,,,,,,,,,,,,,,,,,
1606530626.387752,57.000000,0.000000,4237.179688,4233.205078,4212.436035,4218.461426,4233.974121,4258.589844,4198.974121,4221.922852,4227.692383,4183.717773,4184.743652,4235.641113,4283.974121,4205.769043,0.000000,0.000000,,,,0.000000,4.000000,4.000000,4.000000,4.000000,4.000000,4.000000,4.000000,4.000000,4.000000,4.000000,4.000000,4.000000,4.000000,4.000000,100.000000,,,,,,,,,,,,,,,,,,,,,,,,,,,,,,,,,,,,,,,,,,,,,,,,,,,,,,,,,,,,,,,,,,,,,,,,,,,,,,,,,,,,,,,,,,,,,,,,,,,,,,,,,,,,,,,,,
1606530626.395647,58.000000,0.000000,4235.384766,4231.538574,4212.179688,4215.384766,4225.256348,4246.538574,4192.820313,4210.128418,4215.128418,4176.666504,4187.179688,4235.641113,4265.256348,4205.128418,0.000000,0.000000,,,,0.000000,4.000000,4.000000,4.000000,4.000000,4.000000,4.000000,4.000000,4.000000,4.000000,4.000000,4.000000,4.000000,4.000000,4.000000,100.000000,,,,,,,,,,,,,,,,,,,,,,,,,,,,,,,,,,,,,,,,,,,,,,,,,,,,,,,,,,,,,,,,,,,,,,,,,,,,,,,,,,,,,,,,,,,,,,,,,,,,,,,,,,,,,,,,,
1606530626.403643,59.000000,0.000000,4229.743652,4228.717773,4207.179688,4215.256348,4217.948730,4242.307617,4187.307617,4196.282227,4205.641113,4163.846191,4185.000000,4223.077148,4263.974121,4212.436035,0.000000,0.000000,,,,0.000000,4.000000,4.000000,4.000000,4.000000,4.000000,4.000000,4.000000,4.000000,4.000000,4.000000,4.000000,4.000000,4.000000,4.000000,100.000000,,,,,,,,,,,,,,,,,,,,,,,,,,,,,,,,,,,,,,,,,,,,,,,,,,,,,,,,,,,,,,,,,,,,,,,,,,,,,,,,,,,,,,,,,,,,,,,,,,,,,,,,,,,,,,,,,
1606530626.411539,60.000000,0.000000,4228.974121,4230.128418,4204.871582,4217.307617,4219.743652,4240.128418,4187.563965,4196.794922,4204.230957,4158.333496,4176.410156,4215.897461,4276.282227,4217.563965,0.000000,0.000000,,,,0.000000,4.000000,4.000000,4.000000,4.000000,4.000000,4.000000,4.000000,4.000000,4.000000,4.000000,4.000000,4.000000,4.000000,4.000000,100.000000,15.000000,0.000000,0.672265,-0.459045,-0.504395,-0.287964,0.983902,-0.314946,0.090333,-31.702145,-121.126114,18.692303,,,,,,,,,,,,,,,,,,,,,,,,,,,,,,,,4.702267,3.554712,0.861031,0.295535,0.281029,1.909238,1.747355,0.534672,0.226091,0.258659,1.798700,1.600030,0.415983,0.225319,0.137353,1.522718,1.027494,0.275490,0.124815,0.121999,2.093660,1.017967,0.476019,0.406720,0.229151,7.417562,1.065822,0.440412,0.361205,0.237180,1.945193,1.444815,0.360980,0.235159,0.104467,3.708409,1.861102,0.651161,0.306205,0.224190,3.009168,1.562748,0.762510,0.403313,0.299660,2.937751,2.188727,0.663111,0.612780,0.411847,3.436761,3.021282,1.005445,0.606849,0.506684,3.597939,2.162309,0.746584,0.383795,0.228903,4.671682,3.576348,0.836188,0.683971,0.750839,3.564981,2.552767,0.860616,0.327347,0.386058
1606530626.419434,61.000000,0.000000,4232.692383,4232.179688,4204.358887,4215.128418,4214.102539,4230.641113,4185.897461,4197.692383,4202.179688,4155.000000,4176.282227,4222.563965,4271.282227,4213.717773,0.000000,0.000000,,,,0.000000,4.000000,4.000000,4.000000,4.000000,4.000000,4.000000,4.000000,4.000000,4.000000,4.000000,4.000000,4.000000,4.000000,4.000000,100.000000,,,,,,,,,,,,,,,,,,,,,,,,,,,,,,,,,,,,,,,,,,,,,,,,,,,,,,,,,,,,,,,,,,,,,,,,,,,,,,,,,,,,,,,,,,,,,,,,,,,,,,,,,,,,,,,,,
1606530626.427330,62.000000,0.000000,4234.871582,4227.307617,4205.000000,4213.333496,4211.538574,4231.922852,4184.230957,4196.282227,4203.589844,4157.436035,4183.205078,4229.230957,4267.179688,4210.641113,0.000000,0.000000,,,,0.000000,4.000000,4.000000,4.000000,4.000000,4.000000,4.000000,4.000000,4.000000,4.000000,4.000000,4.000000,4.000000,4.000000,4.000000,100.000000,,,,,,,,,,,,,,,,,,,,,,,,,,,,,,,,,,,,,,,,,,,,,,,,,,,,,,,,,,,,,,,,,,,,,,,,,,,,,,,,,,,,,,,,,,,,,,,,,,,,,,,,,,,,,,,,,
1606530626.435026,63.000000,0.000000,4233.846191,4221.794922,4211.666504,4213.077148,4220.384766,4244.743652,4185.256348,4199.871582,4206.282227,4160.256348,4184.743652,4229.102539,4279.102539,4213.077148,0.000000,0.000000,,,,0.000000,4.000000,4.000000,4.000000,4.000000,4.000000,4.000000,4.000000,4.000000,4.000000,4.000000,4.000000,4.000000,4.000000,4.000000,100.000000,,,,,,,,,,,,,,,,,,,,,,,,,,,,,,,,,,,,,,,,,,,,,,,,,,,,,,,,,,,,,,,,,,,,,,,,,,,,,,,,,,,,,,,,,,,,,,,,,,,,,,,,,,,,,,,,,
1606530626.442722,64.000000,0.000000,4233.846191,4222.820313,4214.743652,4211.282227,4223.077148,4252.948730,4186.153809,4199.230957,4203.461426,4160.384766,4183.461426,4230.641113,4282.436035,4215.128418,3482.000000,0.000000,,,,0.000000,4.000000,4.000000,4.000000,4.000000,4.000000,4.000000,4.000000,4.000000,4.000000,4.000000,4.000000,4.000000,4.000000,4.000000,100.000000,16.000000,0.000000,0.671354,-0.462036,-0.501221,-0.290833,0.971206,-0.315923,0.085939,-32.898453,-121.873810,17.495995,,,,,,,,,,,,,,,,,,,,,,,,,,,,,,,,,,,,,,,,,,,,,,,,,,,,,,,,,,,,,,,,,,,,,,,,,,,,,,,,,,,,,,,,,,,,,,,,,,,,,
1606530626.450418,65.000000,0.000000,4234.358887,4225.384766,4213.461426,4210.641113,4218.589844,4252.179688,4184.487305,4190.512695,4202.820313,4167.179688,4186.538574,4233.974121,4275.641113,4216.666504,3482.000000,0.000000,,,,0.000000,4.000000,4.000000,4.000000,4.000000,4.000000,4.000000,4.000000,4.000000,4.000000,4.000000,4.000000,4.000000,4.000000,4.000000,100.000000,,,,,,,,,,,,,,,,,,,,,,,,,,,,,,,,,,,,,,,,,,,,,,,,,,,,,,,,,,,,,,,,,,,,,,,,,,,,,,,,,,,,,,,,,,,,,,,,,,,,,,,,,,,,,,,,,
1606530626.458114,66.000000,0.000000,4234.615234,4227.307617,4216.410156,4214.743652,4217.307617,4250.128418,4182.563965,4188.717773,4205.000000,4168.846191,4188.077148,4234.358887,4276.666504,4220.897461,3611.000000,0.000000,,,,0.000000,4.000000,4.000000,4.000000,4.000000,4.000000,4.000000,4.000000,4.000000,4.000000,4.000000,4.000000,4.000000,4.000000,4.000000,100.000000,,,,,,,,,,,,,,,,,,,,,,,,,,,,,,,,,,,,,,,,,,,,,,,,,,,,,,,,,,,,,,,,,,,,,,,,,,,,,,,,,,,,,,,,,,,,,,,,,,,,,,,,,,,,,,,,,
1606530626.465910,67.000000,0.000000,4232.820313,4225.897461,4216.922852,4214.615234,4214.615234,4251.666504,4183.717773,4188.589844,4202.948730,4157.436035,4183.077148,4230.897461,4277.436035,4216.153809,3606.000000,0.000000,,,,0.000000,4.000000,4.000000,4.000000,4.000000,4.000000,4.000000,4.000000,4.000000,4.000000,4.000000,4.000000,4.000000,4.000000,4.000000,100.000000,,,,,,,,,,,,,,,,,,,,,,,,,,,,,,,,,,,,,,,,,,,,,,,,,,,,,,,,,,,,,,,,,,,,,,,,,,,,,,,,,,,,,,,,,,,,,,,,,,,,,,,,,,,,,,,,,
1606530626.473805,68.000000,0.000000,4230.641113,4223.077148,4208.589844,4209.230957,4212.948730,4252.307617,4186.666504,4183.846191,4200.641113,4152.563965,4181.410156,4227.820313,4274.743652,4203.333496,3665.000000,0.000000,,,,0.000000,4.000000,4.000000,4.000000,4.000000,4.000000,4.000000,4.000000,4.000000,4.000000,4.000000,4.000000,4.000000,4.000000,4.000000,100.000000,17.000000,0.000000,0.670040,-0.465759,-0.497742,-0.293884,0.967300,-0.335454,0.089357,-31.702145,-120.677498,17.196918,,,,,,,,,,,,,,,,,,,,,,,,,,,,,,,,,,,,,,,,,,,,,,,,,,,,,,,,,,,,,,,,,,,,,,,,,,,,,,,,,,,,,,,,,,,,,,,,,,,,,
1606530626.481501,69.000000,0.000000,4230.769043,4223.846191,4207.179688,4210.769043,4217.307617,4250.641113,4187.179688,4189.871582,4200.897461,4156.922852,4185.641113,4231.538574,4276.153809,4203.461426,3416.000000,0.000000,,,,0.000000,4.000000,4.000000,4.000000,4.000000,4.000000,4.000000,4.000000,4.000000,4.000000,4.000000,4.000000,4.000000,4.000000,4.000000,100.000000,,,,,,,,,,,,,,,,,,,,,,,,,,,,,,,,,,,,,,,,,,,,,,,,,,,,,,,,,,,,,,,,,,,,,,,,,,,,,,,,,,,,,,,,,,,,,,,,,,,,,,,,,,,,,,,,,
1606530626.489497,70.000000,0.000000,4232.179688,4224.102539,4212.436035,4212.436035,4217.948730,4248.205078,4185.897461,4202.179688,4203.461426,4158.589844,4183.589844,4233.205078,4277.948730,4211.282227,3074.000000,0.000000,,,,0.000000,4.000000,4.000000,4.000000,4.000000,4.000000,4.000000,4.000000,4.000000,4.000000,4.000000,4.000000,4.000000,4.000000,4.000000,100.000000,,,,,,,,,,,,,,,,,,,,,,,,,,,,,,,,,,,,,,,,,,,,,,,,,,,,,,,,,,,,,,,,,,,,,,,,,,,,,,,,,,,,,,,,,,,,,,,,,,,,,,,,,,,,,,,,,
1606530626.497392,71.000000,0.000000,4231.794922,4217.948730,4204.743652,4205.384766,4209.230957,4244.615234,4185.128418,4202.820313,4210.384766,4161.410156,4177.179688,4226.922852,4277.820313,4209.358887,3228.000000,0.000000,,,,0.000000,4.000000,4.000000,4.000000,4.000000,4.000000,4.000000,4.000000,4.000000,4.000000,4.000000,4.000000,4.000000,4.000000,4.000000,100.000000,,,,,,,,,,,,,,,,,,,,,,,,,,,,,,,,,,,,,,,,,,,,,,,,,,,,,,,,,,,,,,,,,,,,,,,,,,,,,,,,,,,,,,,,,,,,,,,,,,,,,,,,,,,,,,,,,
1606530626.505288,72.000000,0.000000,4224.358887,4212.820313,4195.897461,4199.230957,4203.461426,4242.692383,4187.179688,4199.871582,4211.666504,4167.820313,4179.102539,4225.256348,4269.871582,4202.436035,3316.000000,0.000000,,,,0.000000,4.000000,4.000000,4.000000,4.000000,4.000000,4.000000,4.000000,4.000000,4.000000,4.000000,4.000000,4.000000,4.000000,4.000000,100.000000,18.000000,0.000000,0.668335,-0.470215,-0.493835,-0.297241,0.965835,-0.357916,0.088380,-31.403067,-121.574730,18.094149,,,,,,,,,,,,,,,,,,,,,,,,,,,,,,,,,,,,,,,,,,,,,,,,,,,,,,,,,,,,,,,,,,,,,,,,,,,,,,,,,,,,,,,,,,,,,,,,,,,,,
1606530626.513184,73.000000,0.000000,4215.897461,4212.692383,4199.615234,4199.743652,4207.692383,4241.794922,4189.230957,4200.512695,4203.974121,4168.846191,4182.820313,4230.128418,4258.974121,4198.846191,3631.000000,0.000000,,,,0.000000,4.000000,4.000000,4.000000,4.000000,4.000000,4.000000,4.000000,4.000000,4.000000,4.000000,4.000000,4.000000,4.000000,4.000000,100.000000,,,,,,,,,,,,,,,,,,,,,,,,,,,,,,,,,,,,,,,,,,,,,,,,,,,,,,,,,,,,,,,,,,,,,,,,,,,,,,,,,,,,,,,,,,,,,,,,,,,,,,,,,,,,,,,,,
1606530626.521080,74.000000,0.000000,4220.512695,4215.256348,4201.282227,4201.410156,4214.358887,4241.153809,4186.025879,4197.051270,4205.641113,4168.461426,4185.128418,4232.692383,4266.410156,4195.641113,3620.000000,0.000000,,,,0.000000,4.000000,4.000000,4.000000,4.000000,4.000000,4.000000,4.000000,4.000000,4.000000,4.000000,4.000000,4.000000,4.000000,4.000000,100.000000,,,,,,,,,,,,,,,,,,,,,,,,,,,,,,,,,,,,,,,,,,,,,,,,,,,,,,,,,,,,,,,,,,,,,,,,,,,,,,,,,,,,,,,,,,,,,,,,,,,,,,,,,,,,,,,,,
1606530626.528875,75.000000,0.000000,4233.846191,4223.077148,4200.512695,4201.282227,4216.922852,4244.230957,4184.230957,4197.948730,4218.717773,4177.179688,4187.179688,4233.205078,4282.179688,4199.102539,3526.000000,0.000000,,,,0.000000,4.000000,4.000000,4.000000,4.000000,4.000000,4.000000,4.000000,4.000000,4.000000,4.000000,4.000000,4.000000,4.000000,4.000000,100.000000,,,,,,,,,,,,,,,,,,,,,,,,,,,,,,,,,,,,,,,,,,,,,,,,,,,,,,,,,,,,,,,,,,,,,,,,,,,,,,,,,,,,,,,,,,,,,,,,,,,,,,,,,,,,,,,,,
1606530626.536571,76.000000,0.000000,4232.307617,4224.102539,4205.000000,4198.974121,4211.538574,4245.256348,4190.256348,4202.307617,4220.641113,4184.487305,4179.743652,4232.051270,4283.846191,4205.897461,3536.000000,0.000000,,,,0.000000,4.000000,4.000000,4.000000,4.000000,4.000000,4.000000,4.000000,4.000000,4.000000,4.000000,4.000000,4.000000,4.000000,4.000000,100.000000,19.000000,0.000000,0.666544,-0.474731,-0.490112,-0.300232,0.959487,-0.370123,0.085939,-30.804913,-121.873810,16.748302,,,,,,,,,,,,,,,,,,,,,,,,,,,,,,,,4.600894,3.086702,0.992301,0.336079,0.282588,1.857308,1.545730,0.692216,0.272515,0.269755,1.663150,1.325657,0.475561,0.245271,0.135359,1.246584,0.831081,0.369596,0.158666,0.128324,1.850794,1.151335,0.544879,0.424003,0.210029,6.977823,1.249600,0.504768,0.361589,0.246216,2.037931,1.615748,0.369686,0.256347,0.101157,3.797957,2.121359,0.637077,0.334427,0.218855,2.929782,1.764523,0.641998,0.454249,0.298879,2.848102,2.175523,0.507599,0.669348,0.401678,3.354110,2.647146,1.055824,0.619063,0.505329,3.495013,1.744151,0.782469,0.438500,0.208951,4.672191,3.490852,0.937090,0.704961,0.796522,3.447019,1.975153,0.920375,0.392951,0.357460
1606530626.544267,77.000000,0.000000,4226.153809,4222.563965,4213.974121,4205.128418,4209.615234,4242.692383,4197.563965,4202.051270,4213.461426,4183.205078,4185.769043,4237.563965,4286.025879,4210.128418,3354.000000,0.000000,,,,0.000000,4.000000,4.000000,4.000000,4.000000,4.000000,4.000000,4.000000,4.000000,4.000000,4.000000,4.000000,4.000000,4.000000,4.000000,100.000000,,,,,,,,,,,,,,,,,,,,,,,,,,,,,,,,,,,,,,,,,,,,,,,,,,,,,,,,,,,,,,,,,,,,,,,,,,,,,,,,,,,,,,,,,,,,,,,,,,,,,,,,,,,,,,,,,
1606530626.551963,78.000000,0.000000,4236.922852,4231.666504,4223.846191,4219.615234,4215.641113,4242.563965,4199.743652,4201.794922,4215.769043,4186.410156,4211.153809,4248.461426,4299.102539,4216.794922,3620.000000,0.000000,,,,0.000000,4.000000,4.000000,4.000000,4.000000,4.000000,4.000000,4.000000,4.000000,4.000000,4.000000,4.000000,4.000000,4.000000,4.000000,100.000000,,,,,,,,,,,,,,,,,,,,,,,,,,,,,,,,,,,,,,,,,,,,,,,,,,,,,,,,,,,,,,,,,,,,,,,,,,,,,,,,,,,,,,,,,,,,,,,,,,,,,,,,,,,,,,,,,
1606530626.559759,79.000000,0.000000,4245.512695,4235.128418,4220.897461,4221.794922,4220.000000,4244.487305,4200.897461,4203.333496,4219.615234,4194.102539,4219.230957,4249.615234,4299.487305,4216.794922,3526.000000,0.000000,,,,0.000000,4.000000,4.000000,4.000000,4.000000,4.000000,4.000000,4.000000,4.000000,4.000000,4.000000,4.000000,4.000000,4.000000,4.000000,100.000000,,,,,,,,,,,,,,,,,,,,,,,,,,,,,,,,,,,,,,,,,,,,,,,,,,,,,,,,,,,,,,,,,,,,,,,,,,,,,,,,,,,,,,,,,,,,,,,,,,,,,,,,,,,,,,,,,
1606530626.567455,80.000000,0.000000,4244.102539,4231.153809,4214.743652,4216.410156,4225.897461,4245.128418,4202.307617,4208.846191,4219.871582,4198.205078,4213.077148,4253.461426,4293.461426,4216.025879,3536.000000,0.000000,,,,0.000000,4.000000,4.000000,4.000000,4.000000,4.000000,4.000000,4.000000,4.000000,4.000000,4.000000,4.000000,4.000000,4.000000,4.000000,100.000000,20.000000,0.000000,0.664533,-0.479370,-0.486511,-0.303162,0.949233,-0.381353,0.062989,-33.047989,-123.518730,19.290455,,,,,,,,,,,,,,,,,,,,,,,,,,,,,,,,,,,,,,,,,,,,,,,,,,,,,,,,,,,,,,,,,,,,,,,,,,,,,,,,,,,,,,,,,,,,,,,,,,,,,
1606530626.575151,81.000000,0.000000,4246.410156,4232.820313,4224.615234,4221.153809,4229.102539,4242.820313,4200.769043,4214.358887,4222.692383,4202.051270,4216.410156,4265.769043,4309.743652,4227.692383,3354.000000,0.000000,,,,0.000000,4.000000,4.000000,4.000000,4.000000,4.000000,4.000000,4.000000,4.000000,4.000000,4.000000,4.000000,4.000000,4.000000,4.000000,100.000000,,,,,,,,,,,,,,,,,,,,,,,,,,,,,,,,,,,,,,,,,,,,,,,,,,,,,,,,,,,,,,,,,,,,,,,,,,,,,,,,,,,,,,,,,,,,,,,,,,,,,,,,,,,,,,,,,
1606530626.582847,82.000000,0.000000,4251.282227,4234.615234,4231.410156,4224.871582,4222.563965,4242.307617,4199.230957,4216.025879,4227.820313,4210.512695,4218.077148,4262.436035,4323.589844,4233.077148,3620.000000,0.000000,,,,0.000000,4.000000,4.000000,4.000000,4.000000,4.000000,4.000000,4.000000,4.000000,4.000000,4.000000,4.000000,4.000000,4.000000,4.000000,100.000000,,,,,,,,,,,,,,,,,,,,,,,,,,,,,,,,,,,,,,,,,,,,,,,,,,,,,,,,,,,,,,,,,,,,,,,,,,,,,,,,,,,,,,,,,,,,,,,,,,,,,,,,,,,,,,,,,
1606530626.590643,83.000000,0.000000,4244.102539,4231.025879,4221.153809,4218.461426,4217.179688,4246.794922,4201.025879,4215.769043,4230.769043,4215.641113,4213.717773,4252.692383,4314.743652,4224.102539,3526.000000,0.000000,,,,0.000000,4.000000,4.000000,4.000000,4.000000,4.000000,4.000000,4.000000,4.000000,4.000000,4.000000,4.000000,4.000000,4.000000,4.000000,100.000000,,,,,,,,,,,,,,,,,,,,,,,,,,,,,,,,,,,,,,,,,,,,,,,,,,,,,,,,,,,,,,,,,,,,,,,,,,,,,,,,,,,,,,,,,,,,,,,,,,,,,,,,,,,,,,,,,
1606530626.598538,84.000000,0.000000,4233.974121,4233.974121,4215.897461,4215.512695,4222.179688,4249.871582,4201.538574,4208.974121,4229.871582,4212.948730,4213.333496,4257.820313,4306.282227,4225.769043,3536.000000,0.000000,,,,0.000000,4.000000,4.000000,4.000000,4.000000,4.000000,4.000000,4.000000,4.000000,4.000000,4.000000,4.000000,4.000000,4.000000,4.000000,100.000000,21.000000,0.000000,0.662738,-0.483521,-0.483276,-0.305664,0.968277,-0.375006,0.050294,-31.702145,-120.677498,17.196918,,,,,,,,,,,,,,,,,,,,,,,,,,,,,,,,,,,,,,,,,,,,,,,,,,,,,,,,,,,,,,,,,,,,,,,,,,,,,,,,,,,,,,,,,,,,,,,,,,,,,
1606530626.606434,85.000000,0.000000,4238.589844,4231.922852,4217.436035,4215.384766,4215.641113,4245.641113,4197.692383,4198.717773,4223.205078,4206.538574,4208.205078,4256.794922,4303.717773,4233.461426,3354.000000,0.000000,,,,0.000000,4.000000,4.000000,4.000000,4.000000,4.000000,4.000000,4.000000,4.000000,4.000000,4.000000,4.000000,4.000000,4.000000,4.000000,100.000000,,,,,,,,,,,,,,,,,,,,,,,,,,,,,,,,,,,,,,,,,,,,,,,,,,,,,,,,,,,,,,,,,,,,,,,,,,,,,,,,,,,,,,,,,,,,,,,,,,,,,,,,,,,,,,,,,
1606530626.614330,86.000000,0.000000,4242.051270,4221.025879,4212.563965,4213.205078,4204.487305,4243.461426,4196.538574,4203.974121,4216.282227,4200.128418,4201.025879,4245.769043,4297.307617,4223.461426,3620.000000,0.000000,,,,0.000000,4.000000,4.000000,4.000000,4.000000,4.000000,4.000000,4.000000,4.000000,4.000000,4.000000,4.000000,4.000000,4.000000,4.000000,100.000000,,,,,,,,,,,,,,,,,,,,,,,,,,,,,,,,,,,,,,,,,,,,,,,,,,,,,,,,,,,,,,,,,,,,,,,,,,,,,,,,,,,,,,,,,,,,,,,,,,,,,,,,,,,,,,,,,
1606530626.622325,87.000000,0.000000,4235.769043,4220.769043,4211.538574,4213.717773,4211.922852,4246.922852,4201.666504,4216.794922,4221.410156,4197.948730,4203.589844,4244.487305,4293.333496,4213.077148,3526.000000,0.000000,,,,0.000000,4.000000,4.000000,4.000000,4.000000,4.000000,4.000000,4.000000,4.000000,4.000000,4.000000,4.000000,4.000000,4.000000,4.000000,100.000000,,,,,,,,,,,,,,,,,,,,,,,,,,,,,,,,,,,,,,,,,,,,,,,,,,,,,,,,,,,,,,,,,,,,,,,,,,,,,,,,,,,,,,,,,,,,,,,,,,,,,,,,,,,,,,,,,
1606530626.630221,88.000000,0.000000,4236.538574,4229.487305,4214.871582,4213.589844,4221.410156,4247.820313,4204.230957,4216.282227,4232.563965,4205.897461,4207.820313,4248.974121,4297.563965,4217.436035,3536.000000,0.000000,,,,0.000000,4.000000,4.000000,4.000000,4.000000,4.000000,4.000000,4.000000,4.000000,4.000000,4.000000,4.000000,4.000000,4.000000,4.000000,100.000000,22.000000,0.000000,0.662240,-0.484558,-0.482300,-0.306641,0.943862,-0.367681,0.051270,-32.300297,-122.322426,18.094149,,,,,,,,,,,,,,,,,,,,,,,,,,,,,,,,,,,,,,,,,,,,,,,,,,,,,,,,,,,,,,,,,,,,,,,,,,,,,,,,,,,,,,,,,,,,,,,,,,,,,
1606530626.637917,89.000000,0.000000,4245.256348,4232.307617,4215.641113,4215.128418,4221.794922,4248.717773,4200.641113,4215.000000,4236.282227,4216.666504,4213.846191,4255.641113,4303.205078,4223.077148,3354.000000,0.000000,,,,0.000000,4.000000,4.000000,4.000000,4.000000,4.000000,4.000000,4.000000,4.000000,4.000000,4.000000,4.000000,4.000000,4.000000,4.000000,100.000000,,,,,,,,,,,,,,,,,,,,,,,,,,,,,,,,,,,,,,,,,,,,,,,,,,,,,,,,,,,,,,,,,,,,,,,,,,,,,,,,,,,,,,,,,,,,,,,,,,,,,,,,,,,,,,,,,
1606530626.645613,90.000000,0.000000,4246.666504,4236.538574,4222.820313,4225.000000,4224.358887,4250.769043,4199.871582,4220.256348,4234.615234,4219.615234,4223.333496,4264.615234,4314.871582,4230.256348,3620.000000,0.000000,,,,0.000000,4.000000,4.000000,4.000000,4.000000,4.000000,4.000000,4.000000,4.000000,4.000000,4.000000,4.000000,4.000000,4.000000,4.000000,100.000000,,,,,,,,,,,,,,,,,,,,,,,,,,,,,,,,,,,,,,,,,,,,,,,,,,,,,,,,,,,,,,,,,,,,,,,,,,,,,,,,,,,,,,,,,,,,,,,,,,,,,,,,,,,,,,,,,
1606530626.653409,91.000000,0.000000,4252.179688,4247.436035,4233.846191,4232.948730,4232.307617,4249.871582,4202.948730,4220.256348,4234.487305,4224.358887,4229.358887,4268.205078,4332.692383,4243.717773,3526.000000,0.000000,,,,0.000000,4.000000,4.000000,4.000000,4.000000,4.000000,4.000000,4.000000,4.000000,4.000000,4.000000,4.000000,4.000000,4.000000,4.000000,100.000000,,,,,,,,,,,,,,,,,,,,,,,,,,,,,,,,,,,,,,,,,,,,,,,,,,,,,,,,,,,,,,,,,,,,,,,,,,,,,,,,,,,,,,,,,,,,,,,,,,,,,,,,,,,,,,,,,
1606530626.661204,92.000000,0.000000,4260.641113,4250.256348,4232.563965,4230.641113,4233.717773,4247.436035,4201.666504,4218.077148,4237.307617,4229.358887,4229.102539,4266.922852,4338.077148,4249.358887,3536.000000,0.000000,,,,0.000000,4.000000,4.000000,4.000000,4.000000,4.000000,4.000000,4.000000,4.000000,4.000000,4.000000,4.000000,4.000000,4.000000,4.000000,100.000000,23.000000,0.000000,0.662791,-0.483398,-0.483093,-0.306030,0.923842,-0.383795,0.062501,-31.702145,-121.873810,18.393225,,,,,,,,,,,,,,,,,,,,,,,,,,,,,,,,4.137311,2.489211,1.112282,0.370500,0.269167,1.809323,1.384779,0.847361,0.316291,0.263216,1.433320,1.075157,0.531235,0.266009,0.130846,1.044015,0.707498,0.475438,0.206907,0.127898,1.671287,1.334822,0.624189,0.417407,0.184089,5.985460,1.353380,0.574278,0.342418,0.243988,2.039258,1.652252,0.361426,0.261880,0.099254,3.705094,2.283529,0.627933,0.343884,0.213731,2.668971,1.982822,0.549259,0.491359,0.279330,2.610703,2.200729,0.430224,0.679412,0.368309,2.922102,2.317611,1.073228,0.589218,0.479095,3.079828,1.417009,0.848968,0.481086,0.186006,4.197696,3.361458,1.048104,0.686292,0.801515,3.011496,1.525869,1.011714,0.483208,0.319872
1606530626.668900,93.000000,0.000000,4254.102539,4245.384766,4221.666504,4226.922852,4229.615234,4248.333496,4200.256348,4218.589844,4232.436035,4223.846191,4221.794922,4260.897461,4325.256348,4238.461426,3354.000000,0.000000,,,,0.000000,4.000000,4.000000,4.000000,4.000000,4.000000,4.000000,4.000000,4.000000,4.000000,4.000000,4.000000,4.000000,4.000000,4.000000,100.000000,,,,,,,,,,,,,,,,,,,,,,,,,,,,,,,,,,,,,,,,,,,,,,,,,,,,,,,,,,,,,,,,,,,,,,,,,,,,,,,,,,,,,,,,,,,,,,,,,,,,,,,,,,,,,,,,,
1606530626.676596,94.000000,0.000000,4246.153809,4243.461426,4219.102539,4222.948730,4223.589844,4247.692383,4201.282227,4208.974121,4220.512695,4212.436035,4213.077148,4253.846191,4311.153809,4229.615234,3620.000000,0.000000,,,,0.000000,4.000000,4.000000,4.000000,4.000000,4.000000,4.000000,4.000000,4.000000,4.000000,4.000000,4.000000,4.000000,4.000000,4.000000,100.000000,,,,,,,,,,,,,,,,,,,,,,,,,,,,,,,,,,,,,,,,,,,,,,,,,,,,,,,,,,,,,,,,,,,,,,,,,,,,,,,,,,,,,,,,,,,,,,,,,,,,,,,,,,,,,,,,,
1606530626.684392,95.000000,0.000000,4248.974121,4243.589844,4224.615234,4219.230957,4218.589844,4243.846191,4201.153809,4198.717773,4216.153809,4205.897461,4211.666504,4256.282227,4309.230957,4237.563965,3526.000000,0.000000,,,,0.000000,4.000000,4.000000,4.000000,4.000000,4.000000,4.000000,4.000000,4.000000,4.000000,4.000000,4.000000,4.000000,4.000000,4.000000,100.000000,,,,,,,,,,,,,,,,,,,,,,,,,,,,,,,,,,,,,,,,,,,,,,,,,,,,,,,,,,,,,,,,,,,,,,,,,,,,,,,,,,,,,,,,,,,,,,,,,,,,,,,,,,,,,,,,,
1606530626.692088,96.000000,0.000000,4257.820313,4246.538574,4229.230957,4226.025879,4225.512695,4246.153809,4202.051270,4207.948730,4221.538574,4206.025879,4217.948730,4262.307617,4312.820313,4244.743652,3536.000000,0.000000,,,,0.000000,4.000000,4.000000,4.000000,4.000000,4.000000,4.000000,4.000000,4.000000,4.000000,4.000000,4.000000,4.000000,4.000000,4.000000,100.000000,24.000000,0.000000,0.664125,-0.480469,-0.485413,-0.304077,0.961929,-0.357916,0.059083,-31.851683,-120.079346,17.346457,,,,,,,,,,,,,,,,,,,,,,,,,,,,,,,,,,,,,,,,,,,,,,,,,,,,,,,,,,,,,,,,,,,,,,,,,,,,,,,,,,,,,,,,,,,,,,,,,,,,,
1606530626.699784,97.000000,0.000000,4260.256348,4248.589844,4230.641113,4232.692383,4230.769043,4251.538574,4203.974121,4213.205078,4221.025879,4205.769043,4218.846191,4256.794922,4312.820313,4236.410156,3354.000000,0.000000,,,,0.000000,4.000000,4.000000,4.000000,4.000000,4.000000,4.000000,4.000000,4.000000,4.000000,4.000000,4.000000,4.000000,4.000000,4.000000,100.000000,,,,,,,,,,,,,,,,,,,,,,,,,,,,,,,,,,,,,,,,,,,,,,,,,,,,,,,,,,,,,,,,,,,,,,,,,,,,,,,,,,,,,,,,,,,,,,,,,,,,,,,,,,,,,,,,,
1606530626.707480,98.000000,0.000000,4253.205078,4244.743652,4227.692383,4228.333496,4226.025879,4249.102539,4203.589844,4203.461426,4214.358887,4200.256348,4206.282227,4246.025879,4309.871582,4226.538574,3620.000000,0.000000,,,,0.000000,4.000000,4.000000,4.000000,4.000000,4.000000,4.000000,4.000000,4.000000,4.000000,4.000000,4.000000,4.000000,4.000000,4.000000,100.000000,,,,,,,,,,,,,,,,,,,,,,,,,,,,,,,,,,,,,,,,,,,,,,,,,,,,,,,,,,,,,,,,,,,,,,,,,,,,,,,,,,,,,,,,,,,,,,,,,,,,,,,,,,,,,,,,,
1606530626.715276,99.000000,0.000000,4249.871582,4242.563965,4228.589844,4226.922852,4226.922852,4246.153809,4203.846191,4206.794922,4219.743652,4199.230957,4204.615234,4246.025879,4310.512695,4227.179688,3526.000000,0.000000,,,,0.000000,4.000000,4.000000,4.000000,4.000000,4.000000,4.000000,4.000000,4.000000,4.000000,4.000000,4.000000,4.000000,4.000000,4.000000,100.000000,,,,,,,,,,,,,,,,,,,,,,,,,,,,,,,,,,,,,,,,,,,,,,,,,,,,,,,,,,,,,,,,,,,,,,,,,,,,,,,,,,,,,,,,,,,,,,,,,,,,,,,,,,,,,,,,,
1606530626.722971,100.000000,0.000000,4253.077148,4246.922852,4232.692383,4228.077148,4233.846191,4247.179688,4204.615234,4219.230957,4228.333496,4205.512695,4218.333496,4251.922852,4312.563965,4235.256348,3536.000000,0.000000,,,,0.000000,4.000000,4.000000,4.000000,4.000000,4.000000,4.000000,4.000000,4.000000,4.000000,4.000000,4.000000,4.000000,4.000000,4.000000,100.000000,25.000000,0.000000,0.665155,-0.477539,-0.488708,-0.301147,0.957534,-0.331060,0.060060,-32.599373,-122.322426,18.542763,,,,,,,,,,,,,,,,,,,,,,,,,,,,,,,,,,,,,,,,,,,,,,,,,,,,,,,,,,,,,,,,,,,,,,,,,,,,,,,,,,,,,,,,,,,,,,,,,,,,,
1606530626.730667,101.000000,0.000000,4251.025879,4249.102539,4225.769043,4221.538574,4228.333496,4240.384766,4202.436035,4216.538574,4223.205078,4204.102539,4215.641113,4250.000000,4311.794922,4239.230957,3354.000000,0.000000,,,,0.000000,4.000000,4.000000,4.000000,4.000000,4.000000,4.000000,4.000000,4.000000,4.000000,4.000000,4.000000,4.000000,4.000000,4.000000,100.000000,,,,,,,,,,,,,,,,,,,,,,,,,,,,,,,,,,,,,,,,,,,,,,,,,,,,,,,,,,,,,,,,,,,,,,,,,,,,,,,,,,,,,,,,,,,,,,,,,,,,,,,,,,,,,,,,,
1606530626.738363,102.000000,0.000000,4241.794922,4242.179688,4215.897461,4216.794922,4216.922852,4230.256348,4199.615234,4213.077148,4215.897461,4199.615234,4203.333496,4245.256348,4311.025879,4228.846191,3620.000000,0.000000,,,,0.000000,4.000000,4.000000,4.000000,4.000000,4.000000,4.000000,4.000000,4.000000,4.000000,4.000000,4.000000,4.000000,4.000000,4.000000,100.000000,,,,,,,,,,,,,,,,,,,,,,,,,,,,,,,,,,,,,,,,,,,,,,,,,,,,,,,,,,,,,,,,,,,,,,,,,,,,,,,,,,,,,,,,,,,,,,,,,,,,,,,,,,,,,,,,,
1606530626.746159,103.000000,0.000000,4234.615234,4235.256348,4216.153809,4217.179688,4218.077148,4233.333496,4204.230957,4216.922852,4218.461426,4202.051270,4211.153809,4246.153809,4308.717773,4215.897461,3526.000000,0.000000,,,,0.000000,4.000000,4.000000,4.000000,4.000000,4.000000,4.000000,4.000000,4.000000,4.000000,4.000000,4.000000,4.000000,4.000000,4.000000,100.000000,,,,,,,,,,,,,,,,,,,,,,,,,,,,,,,,,,,,,,,,,,,,,,,,,,,,,,,,,,,,,,,,,,,,,,,,,,,,,,,,,,,,,,,,,,,,,,,,,,,,,,,,,,,,,,,,,
1606530626.753855,104.000000,0.000000,4230.128418,4233.846191,4215.769043,4212.820313,4216.025879,4239.230957,4210.384766,4215.512695,4221.666504,4202.179688,4218.461426,4243.589844,4303.846191,4215.641113,3536.000000,0.000000,,,,0.000000,4.000000,4.000000,4.000000,4.000000,4.000000,4.000000,4.000000,4.000000,4.000000,4.000000,4.000000,4.000000,4.000000,4.000000,100.000000,26.000000,0.000000,0.665501,-0.476563,-0.490051,-0.299744,0.944350,-0.327153,0.059571,-32.001221,-122.621498,18.692303,,,,,,,,,,,,,,,,,,,,,,,,,,,,,,,,,,,,,,,,,,,,,,,,,,,,,,,,,,,,,,,,,,,,,,,,,,,,,,,,,,,,,,,,,,,,,,,,,,,,,
1606530626.761551,105.000000,0.000000,4226.538574,4230.384766,4212.692383,4211.538574,4207.307617,4234.871582,4205.512695,4213.846191,4216.538574,4196.666504,4207.179688,4237.820313,4301.025879,4217.436035,3354.000000,0.000000,,,,0.000000,4.000000,4.000000,4.000000,4.000000,4.000000,4.000000,4.000000,4.000000,4.000000,4.000000,4.000000,4.000000,4.000000,4.000000,100.000000,,,,,,,,,,,,,,,,,,,,,,,,,,,,,,,,,,,,,,,,,,,,,,,,,,,,,,,,,,,,,,,,,,,,,,,,,,,,,,,,,,,,,,,,,,,,,,,,,,,,,,,,,,,,,,,,,
1606530626.769247,106.000000,0.000000,4226.282227,4228.846191,4213.589844,4217.179688,4215.384766,4234.487305,4200.000000,4213.077148,4216.538574,4195.128418,4203.589844,4241.282227,4302.436035,4218.333496,3620.000000,0.000000,,,,0.000000,4.000000,4.000000,4.000000,4.000000,4.000000,4.000000,4.000000,4.000000,4.000000,4.000000,4.000000,4.000000,4.000000,4.000000,100.000000,,,,,,,,,,,,,,,,,,,,,,,,,,,,,,,,,,,,,,,,,,,,,,,,,,,,,,,,,,,,,,,,,,,,,,,,,,,,,,,,,,,,,,,,,,,,,,,,,,,,,,,,,,,,,,,,,
1606530626.777043,107.000000,0.000000,4235.897461,4239.102539,4217.820313,4218.461426,4233.846191,4247.563965,4211.282227,4215.128418,4227.179688,4205.256348,4215.512695,4249.102539,4310.128418,4235.769043,3526.000000,0.000000,,,,0.000000,4.000000,4.000000,4.000000,4.000000,4.000000,4.000000,4.000000,4.000000,4.000000,4.000000,4.000000,4.000000,4.000000,4.000000,100.000000,,,,,,,,,,,,,,,,,,,,,,,,,,,,,,,,,,,,,,,,,,,,,,,,,,,,,,,,,,,,,,,,,,,,,,,,,,,,,,,,,,,,,,,,,,,,,,,,,,,,,,,,,,,,,,,,,
1606530626.784938,108.000000,0.000000,4248.333496,4250.128418,4223.846191,4216.794922,4235.641113,4254.230957,4222.820313,4229.358887,4236.410156,4218.846191,4225.384766,4251.282227,4322.436035,4252.820313,3536.000000,0.000000,,,,0.000000,4.000000,4.000000,4.000000,4.000000,4.000000,4.000000,4.000000,4.000000,4.000000,4.000000,4.000000,4.000000,4.000000,4.000000,100.000000,27.000000,0.000000,0.664862,-0.477966,-0.488953,-0.300720,0.959487,-0.341314,0.056153,-32.001221,-121.425194,17.196918,,,,,,,,,,,,,,,,,,,,,,,,,,,,,,,,3.479128,1.898649,1.168661,0.387651,0.243737,1.685771,1.246599,0.933980,0.345838,0.237535,1.178437,0.927748,0.552041,0.278067,0.122861,0.965993,0.668555,0.550339,0.257267,0.119657,1.559957,1.544177,0.691251,0.386129,0.155688,4.760444,1.344603,0.636289,0.309240,0.232484,1.906883,1.526649,0.332267,0.249924,0.097813,3.417310,2.281280,0.631117,0.334747,0.206000,2.293122,2.179809,0.480667,0.498951,0.245818,2.387207,2.272177,0.433264,0.633346,0.317689,2.335325,2.141441,1.034375,0.526292,0.431553,2.501050,1.255962,0.902420,0.502802,0.162477,3.479393,3.252507,1.127686,0.637131,0.760950,2.434726,1.266197,1.085312,0.586004,0.276125
1606530626.792834,109.000000,0.000000,4251.922852,4248.205078,4224.358887,4219.102539,4226.025879,4241.025879,4214.743652,4235.384766,4238.077148,4222.820313,4224.358887,4248.589844,4323.717773,4242.051270,3354.000000,0.000000,,,,0.000000,4.000000,4.000000,4.000000,4.000000,4.000000,4.000000,4.000000,4.000000,4.000000,4.000000,4.000000,4.000000,4.000000,4.000000,100.000000,,,,,,,,,,,,,,,,,,,,,,,,,,,,,,,,,,,,,,,,,,,,,,,,,,,,,,,,,,,,,,,,,,,,,,,,,,,,,,,,,,,,,,,,,,,,,,,,,,,,,,,,,,,,,,,,,
1606530626.800730,110.000000,0.000000,4245.384766,4242.692383,4217.692383,4220.769043,4220.000000,4222.307617,4202.179688,4221.538574,4232.051270,4215.128418,4214.743652,4243.333496,4314.102539,4227.563965,3620.000000,0.000000,,,,0.000000,4.000000,4.000000,4.000000,4.000000,4.000000,4.000000,4.000000,4.000000,4.000000,4.000000,4.000000,4.000000,4.000000,4.000000,100.000000,,,,,,,,,,,,,,,,,,,,,,,,,,,,,,,,,,,,,,,,,,,,,,,,,,,,,,,,,,,,,,,,,,,,,,,,,,,,,,,,,,,,,,,,,,,,,,,,,,,,,,,,,,,,,,,,,
1606530626.808725,111.000000,0.000000,4238.461426,4245.512695,4216.794922,4216.538574,4218.205078,4220.897461,4200.384766,4215.384766,4221.794922,4211.153809,4211.666504,4242.436035,4312.051270,4230.641113,3526.000000,0.000000,,,,0.000000,4.000000,4.000000,4.000000,4.000000,4.000000,4.000000,4.000000,4.000000,4.000000,4.000000,4.000000,4.000000,4.000000,4.000000,100.000000,,,,,,,,,,,,,,,,,,,,,,,,,,,,,,,,,,,,,,,,,,,,,,,,,,,,,,,,,,,,,,,,,,,,,,,,,,,,,,,,,,,,,,,,,,,,,,,,,,,,,,,,,,,,,,,,,
1606530626.816621,112.000000,0.000000,4238.333496,4249.102539,4218.717773,4216.410156,4216.666504,4227.179688,4201.538574,4217.179688,4217.948730,4214.615234,4217.948730,4247.436035,4314.615234,4234.358887,3536.000000,0.000000,,,,0.000000,4.000000,4.000000,4.000000,4.000000,4.000000,4.000000,4.000000,4.000000,4.000000,4.000000,4.000000,4.000000,4.000000,4.000000,100.000000,28.000000,0.000000,0.663654,-0.480957,-0.486145,-0.303162,0.949233,-0.337407,0.042969,-31.851683,-122.023346,18.841841,,,,,,,,,,,,,,,,,,,,,,,,,,,,,,,,,,,,,,,,,,,,,,,,,,,,,,,,,,,,,,,,,,,,,,,,,,,,,,,,,,,,,,,,,,,,,,,,,,,,,
1606530626.824517,113.000000,0.000000,4237.948730,4243.077148,4215.256348,4218.077148,4208.717773,4222.179688,4197.563965,4205.128418,4216.538574,4217.436035,4215.641113,4244.487305,4312.179688,4231.794922,3354.000000,0.000000,,,,0.000000,4.000000,4.000000,4.000000,4.000000,4.000000,4.000000,4.000000,4.000000,4.000000,4.000000,4.000000,4.000000,4.000000,4.000000,100.000000,,,,,,,,,,,,,,,,,,,,,,,,,,,,,,,,,,,,,,,,,,,,,,,,,,,,,,,,,,,,,,,,,,,,,,,,,,,,,,,,,,,,,,,,,,,,,,,,,,,,,,,,,,,,,,,,,
1606530626.832213,114.000000,0.000000,4234.230957,4234.102539,4214.615234,4210.000000,4202.563965,4215.384766,4191.922852,4197.179688,4207.307617,4215.512695,4206.282227,4235.384766,4306.282227,4229.102539,3620.000000,0.000000,,,,0.000000,4.000000,4.000000,4.000000,4.000000,4.000000,4.000000,4.000000,4.000000,4.000000,4.000000,4.000000,4.000000,4.000000,4.000000,100.000000,,,,,,,,,,,,,,,,,,,,,,,,,,,,,,,,,,,,,,,,,,,,,,,,,,,,,,,,,,,,,,,,,,,,,,,,,,,,,,,,,,,,,,,,,,,,,,,,,,,,,,,,,,,,,,,,,
1606530626.839809,115.000000,0.000000,4228.846191,4230.512695,4215.000000,4198.589844,4201.025879,4215.384766,4187.692383,4200.897461,4200.769043,4209.743652,4206.538574,4231.666504,4300.384766,4221.794922,3526.000000,0.000000,,,,0.000000,4.000000,4.000000,4.000000,4.000000,4.000000,4.000000,4.000000,4.000000,4.000000,4.000000,4.000000,4.000000,4.000000,4.000000,100.000000,,,,,,,,,,,,,,,,,,,,,,,,,,,,,,,,,,,,,,,,,,,,,,,,,,,,,,,,,,,,,,,,,,,,,,,,,,,,,,,,,,,,,,,,,,,,,,,,,,,,,,,,,,,,,,,,,
1606530626.847505,116.000000,0.000000,4220.897461,4227.563965,4212.820313,4197.436035,4190.641113,4208.974121,4181.922852,4194.230957,4198.589844,4199.230957,4205.000000,4228.077148,4292.948730,4209.871582,3536.000000,0.000000,,,,0.000000,4.000000,4.000000,4.000000,4.000000,4.000000,4.000000,4.000000,4.000000,4.000000,4.000000,4.000000,4.000000,4.000000,4.000000,100.000000,29.000000,0.000000,0.662435,-0.484131,-0.482849,-0.306030,0.961440,-0.360845,0.057618,-30.804913,-124.116882,17.495995,,,,,,,,,,,,,,,,,,,,,,,,,,,,,,,,,,,,,,,,,,,,,,,,,,,,,,,,,,,,,,,,,,,,,,,,,,,,,,,,,,,,,,,,,,,,,,,,,,,,,
1606530626.855201,117.000000,0.000000,4215.384766,4221.922852,4212.051270,4198.205078,4181.153809,4200.000000,4180.256348,4182.692383,4189.358887,4188.974121,4189.487305,4222.692383,4283.333496,4206.282227,3354.000000,0.000000,,,,0.000000,4.000000,4.000000,4.000000,4.000000,4.000000,4.000000,4.000000,4.000000,4.000000,4.000000,4.000000,4.000000,4.000000,4.000000,100.000000,,,,,,,,,,,,,,,,,,,,,,,,,,,,,,,,,,,,,,,,,,,,,,,,,,,,,,,,,,,,,,,,,,,,,,,,,,,,,,,,,,,,,,,,,,,,,,,,,,,,,,,,,,,,,,,,,
1606530626.862896,118.000000,0.000000,4212.179688,4218.589844,4207.051270,4190.512695,4182.179688,4202.820313,4185.641113,4182.948730,4183.077148,4188.461426,4182.051270,4221.410156,4277.948730,4208.205078,3620.000000,0.000000,,,,0.000000,4.000000,4.000000,4.000000,4.000000,4.000000,4.000000,4.000000,4.000000,4.000000,4.000000,4.000000,4.000000,4.000000,4.000000,100.000000,,,,,,,,,,,,,,,,,,,,,,,,,,,,,,,,,,,,,,,,,,,,,,,,,,,,,,,,,,,,,,,,,,,,,,,,,,,,,,,,,,,,,,,,,,,,,,,,,,,,,,,,,,,,,,,,,
1606530626.870692,119.000000,0.000000,4203.461426,4216.538574,4199.615234,4183.461426,4177.692383,4206.025879,4187.948730,4183.333496,4184.615234,4188.846191,4184.230957,4214.871582,4274.743652,4197.436035,3526.000000,0.000000,,,,0.000000,4.000000,4.000000,4.000000,4.000000,4.000000,4.000000,4.000000,4.000000,4.000000,4.000000,4.000000,4.000000,4.000000,4.000000,100.000000,,,,,,,,,,,,,,,,,,,,,,,,,,,,,,,,,,,,,,,,,,,,,,,,,,,,,,,,,,,,,,,,,,,,,,,,,,,,,,,,,,,,,,,,,,,,,,,,,,,,,,,,,,,,,,,,,
1606530626.878588,120.000000,0.000000,4196.153809,4211.538574,4198.974121,4180.128418,4171.794922,4204.102539,4182.692383,4175.641113,4182.436035,4181.922852,4173.846191,4203.205078,4268.589844,4183.589844,3536.000000,0.000000,,,,0.000000,4.000000,4.000000,4.000000,4.000000,4.000000,4.000000,4.000000,4.000000,4.000000,4.000000,4.000000,4.000000,4.000000,4.000000,100.000000,30.000000,0.000000,0.661379,-0.486938,-0.479675,-0.308838,0.975601,-0.337407,0.058106,-31.253529,-122.920578,17.944611,,,,,,,,,,,,,,,,,,,,,,,,,,,,,,,,,,,,,,,,,,,,,,,,,,,,,,,,,,,,,,,,,,,,,,,,,,,,,,,,,,,,,,,,,,,,,,,,,,,,,
1606530626.886284,121.000000,0.000000,4194.615234,4203.205078,4193.589844,4174.487305,4169.743652,4203.205078,4173.205078,4166.282227,4174.230957,4173.333496,4163.846191,4197.563965,4263.333496,4184.487305,3354.000000,0.000000,,,,0.000000,4.000000,4.000000,4.000000,4.000000,4.000000,4.000000,4.000000,4.000000,4.000000,4.000000,4.000000,4.000000,4.000000,4.000000,100.000000,,,,,,,,,,,,,,,,,,,,,,,,,,,,,,,,,,,,,,,,,,,,,,,,,,,,,,,,,,,,,,,,,,,,,,,,,,,,,,,,,,,,,,,,,,,,,,,,,,,,,,,,,,,,,,,,,
1606530626.893980,122.000000,0.000000,4190.512695,4197.179688,4182.051270,4164.358887,4167.436035,4199.230957,4169.743652,4163.846191,4166.922852,4167.051270,4166.538574,4197.051270,4261.282227,4188.077148,3620.000000,0.000000,,,,0.000000,4.000000,4.000000,4.000000,4.000000,4.000000,4.000000,4.000000,4.000000,4.000000,4.000000,4.000000,4.000000,4.000000,4.000000,100.000000,,,,,,,,,,,,,,,,,,,,,,,,,,,,,,,,,,,,,,,,,,,,,,,,,,,,,,,,,,,,,,,,,,,,,,,,,,,,,,,,,,,,,,,,,,,,,,,,,,,,,,,,,,,,,,,,,
1606530626.901776,123.000000,0.000000,4192.179688,4203.589844,4186.922852,4158.846191,4176.794922,4199.871582,4177.307617,4173.333496,4173.333496,4167.948730,4169.230957,4197.051270,4259.358887,4184.102539,3526.000000,0.000000,,,,0.000000,4.000000,4.000000,4.000000,4.000000,4.000000,4.000000,4.000000,4.000000,4.000000,4.000000,4.000000,4.000000,4.000000,4.000000,100.000000,,,,,,,,,,,,,,,,,,,,,,,,,,,,,,,,,,,,,,,,,,,,,,,,,,,,,,,,,,,,,,,,,,,,,,,,,,,,,,,,,,,,,,,,,,,,,,,,,,,,,,,,,,,,,,,,,
1606530626.909671,124.000000,0.000000,4201.153809,4214.871582,4200.384766,4170.512695,4182.179688,4208.205078,4187.179688,4182.692383,4183.974121,4175.128418,4168.717773,4197.563965,4260.512695,4184.230957,3536.000000,0.000000,,,,0.000000,4.000000,4.000000,4.000000,4.000000,4.000000,4.000000,4.000000,4.000000,4.000000,4.000000,4.000000,4.000000,4.000000,4.000000,100.000000,31.000000,0.000000,0.660938,-0.488098,-0.478394,-0.309937,0.960952,-0.341802,0.049317,-32.898453,-122.172882,18.692303,,,,,,,,,,,,,,,,,,,,,,,,,,,,,,,,2.897392,1.448496,1.142123,0.382683,0.212415,1.572377,1.144324,0.928072,0.355024,0.197726,0.985227,0.921058,0.526599,0.275994,0.112357,1.035430,0.718222,0.572211,0.294749,0.106085,1.461627,1.733344,0.730587,0.341671,0.130517,3.496950,1.230599,0.683717,0.270884,0.214941,1.709612,1.266184,0.283973,0.225861,0.095759,3.034484,2.095730,0.655798,0.316313,0.195196,1.879411,2.294167,0.437678,0.473585,0.207543,2.340388,2.357426,0.504862,0.543308,0.259495,1.796557,2.140286,0.939105,0.452257,0.372376,1.923179,1.266798,0.909106,0.500973,0.140898,2.754729,3.190710,1.154210,0.578437,0.682420,1.939618,1.193359,1.099505,0.686105,0.230741
1606530626.917567,125.000000,0.000000,4208.205078,4221.538574,4204.230957,4186.666504,4179.487305,4213.717773,4194.230957,4187.948730,4184.358887,4181.538574,4169.743652,4202.563965,4268.461426,4191.922852,3354.000000,0.000000,,,,0.000000,4.000000,4.000000,4.000000,4.000000,4.000000,4.000000,4.000000,4.000000,4.000000,4.000000,4.000000,4.000000,4.000000,4.000000,100.000000,,,,,,,,,,,,,,,,,,,,,,,,,,,,,,,,,,,,,,,,,,,,,,,,,,,,,,,,,,,,,,,,,,,,,,,,,,,,,,,,,,,,,,,,,,,,,,,,,,,,,,,,,,,,,,,,,
1606530626.925463,126.000000,0.000000,4212.436035,4225.641113,4205.641113,4184.358887,4187.820313,4215.897461,4196.410156,4197.563965,4192.179688,4185.512695,4179.871582,4213.846191,4278.717773,4200.897461,3620.000000,0.000000,,,,0.000000,4.000000,4.000000,4.000000,4.000000,4.000000,4.000000,4.000000,4.000000,4.000000,4.000000,4.000000,4.000000,4.000000,4.000000,100.000000,,,,,,,,,,,,,,,,,,,,,,,,,,,,,,,,,,,,,,,,,,,,,,,,,,,,,,,,,,,,,,,,,,,,,,,,,,,,,,,,,,,,,,,,,,,,,,,,,,,,,,,,,,,,,,,,,
1606530626.933458,127.000000,0.000000,4208.333496,4223.077148,4207.692383,4173.205078,4187.436035,4215.512695,4190.512695,4200.256348,4200.897461,4187.307617,4186.666504,4216.922852,4282.948730,4199.743652,49.000000,0.000000,,,,0.000000,4.000000,4.000000,4.000000,4.000000,4.000000,4.000000,4.000000,4.000000,4.000000,4.000000,4.000000,4.000000,4.000000,4.000000,100.000000,,,,,,,,,,,,,,,,,,,,,,,,,,,,,,,,,,,,,,,,,,,,,,,,,,,,,,,,,,,,,,,,,,,,,,,,,,,,,,,,,,,,,,,,,,,,,,,,,,,,,,,,,,,,,,,,,
1606530626.941354,0.000000,0.000000,4201.794922,4217.436035,4203.717773,4174.358887,4174.230957,4207.948730,4184.102539,4190.769043,4191.282227,4186.282227,4173.077148,4207.051270,4273.333496,4187.307617,3482.000000,0.000000,,,,0.000000,4.000000,4.000000,4.000000,4.000000,4.000000,4.000000,4.000000,4.000000,4.000000,4.000000,4.000000,4.000000,4.000000,4.000000,100.000000,0.000000,0.000000,0.660127,-0.490173,-0.476196,-0.311768,0.957046,-0.358892,0.046876,-30.655375,-122.771042,17.047379,,,,,,,,,,,,,,,,,,,,,,,,,,,,,,,,,,,,,,,,,,,,,,,,,,,,,,,,,,,,,,,,,,,,,,,,,,,,,,,,,,,,,,,,,,,,,,,,,,,,,
1606530626.949250,1.000000,0.000000,4200.897461,4215.128418,4200.000000,4173.589844,4178.077148,4202.051270,4186.410156,4182.948730,4184.358887,4183.717773,4166.538574,4202.820313,4263.333496,4182.563965,3481.000000,0.000000,,,,0.000000,4.000000,4.000000,4.000000,4.000000,4.000000,4.000000,4.000000,4.000000,4.000000,4.000000,4.000000,4.000000,4.000000,4.000000,100.000000,,,,,,,,,,,,,,,,,,,,,,,,,,,,,,,,,,,,,,,,,,,,,,,,,,,,,,,,,,,,,,,,,,,,,,,,,,,,,,,,,,,,,,,,,,,,,,,,,,,,,,,,,,,,,,,,,
1606530626.957146,2.000000,0.000000,4199.487305,4218.974121,4200.512695,4167.948730,4191.410156,4209.871582,4195.000000,4185.641113,4195.384766,4188.717773,4180.512695,4207.307617,4267.436035,4187.179688,3611.000000,0.000000,,,,0.000000,4.000000,4.000000,4.000000,4.000000,4.000000,4.000000,4.000000,4.000000,4.000000,4.000000,4.000000,4.000000,4.000000,4.000000,100.000000,,,,,,,,,,,,,,,,,,,,,,,,,,,,,,,,,,,,,,,,,,,,,,,,,,,,,,,,,,,,,,,,,,,,,,,,,,,,,,,,,,,,,,,,,,,,,,,,,,,,,,,,,,,,,,,,,
1606530626.965141,3.000000,0.000000,4198.717773,4224.743652,4199.743652,4167.948730,4186.410156,4218.333496,4201.025879,4193.333496,4203.333496,4195.769043,4188.205078,4210.512695,4275.000000,4188.461426,3600.000000,0.000000,,,,0.000000,4.000000,4.000000,4.000000,4.000000,4.000000,4.000000,4.000000,4.000000,4.000000,4.000000,4.000000,4.000000,4.000000,4.000000,100.000000,,,,,,,,,,,,,,,,,,,,,,,,,,,,,,,,,,,,,,,,,,,,,,,,,,,,,,,,,,,,,,,,,,,,,,,,,,,,,,,,,,,,,,,,,,,,,,,,,,,,,,,,,,,,,,,,,
1606530626.973037,4.000000,0.000000,4201.282227,4224.230957,4200.641113,4172.051270,4180.000000,4216.666504,4200.000000,4197.563965,4202.948730,4191.153809,4192.948730,4213.461426,4279.102539,4193.974121,3665.000000,0.000000,,,,0.000000,4.000000,4.000000,4.000000,4.000000,4.000000,4.000000,4.000000,4.000000,4.000000,4.000000,4.000000,4.000000,4.000000,4.000000,100.000000,1.000000,0.000000,0.658709,-0.493408,-0.473206,-0.314209,0.942397,-0.381842,0.049805,-31.702145,-121.873810,17.944611,,,,,,,,,,,,,,,,,,,,,,,,,,,,,,,,,,,,,,,,,,,,,,,,,,,,,,,,,,,,,,,,,,,,,,,,,,,,,,,,,,,,,,,,,,,,,,,,,,,,,
1606530626.980733,5.000000,0.000000,4202.820313,4217.051270,4202.179688,4178.589844,4182.948730,4216.794922,4197.948730,4195.897461,4203.589844,4188.333496,4199.871582,4215.384766,4282.820313,4206.410156,3415.000000,0.000000,,,,0.000000,4.000000,4.000000,4.000000,4.000000,4.000000,4.000000,4.000000,4.000000,4.000000,4.000000,4.000000,4.000000,4.000000,4.000000,100.000000,,,,,,,,,,,,,,,,,,,,,,,,,,,,,,,,,,,,,,,,,,,,,,,,,,,,,,,,,,,,,,,,,,,,,,,,,,,,,,,,,,,,,,,,,,,,,,,,,,,,,,,,,,,,,,,,,
1606530626.988429,6.000000,0.000000,4196.410156,4212.692383,4198.717773,4178.205078,4165.641113,4218.717773,4201.282227,4193.333496,4198.846191,4185.512695,4182.692383,4206.282227,4271.282227,4198.589844,3073.000000,0.000000,,,,0.000000,4.000000,4.000000,4.000000,4.000000,4.000000,4.000000,4.000000,4.000000,4.000000,4.000000,4.000000,4.000000,4.000000,4.000000,100.000000,,,,,,,,,,,,,,,,,,,,,,,,,,,,,,,,,,,,,,,,,,,,,,,,,,,,,,,,,,,,,,,,,,,,,,,,,,,,,,,,,,,,,,,,,,,,,,,,,,,,,,,,,,,,,,,,,
1606530626.996224,7.000000,0.000000,4196.538574,4222.820313,4206.153809,4180.256348,4157.307617,4218.717773,4205.512695,4199.230957,4198.461426,4185.769043,4168.077148,4201.794922,4264.615234,4185.128418,3228.000000,0.000000,,,,0.000000,4.000000,4.000000,4.000000,4.000000,4.000000,4.000000,4.000000,4.000000,4.000000,4.000000,4.000000,4.000000,4.000000,4.000000,100.000000,,,,,,,,,,,,,,,,,,,,,,,,,,,,,,,,,,,,,,,,,,,,,,,,,,,,,,,,,,,,,,,,,,,,,,,,,,,,,,,,,,,,,,,,,,,,,,,,,,,,,,,,,,,,,,,,,
1606530627.003920,8.000000,0.000000,4210.897461,4233.974121,4222.307617,4188.589844,4182.820313,4217.307617,4205.128418,4205.384766,4204.743652,4199.871582,4184.615234,4214.230957,4284.230957,4194.487305,3314.000000,0.000000,,,,0.000000,4.000000,4.000000,4.000000,4.000000,4.000000,4.000000,4.000000,4.000000,4.000000,4.000000,4.000000,4.000000,4.000000,4.000000,100.000000,2.000000,0.000000,0.656654,-0.497864,-0.469177,-0.317505,0.938003,-0.378424,0.057618,-32.449837,-121.873810,19.140917,,,,,,,,,,,,,,,,,,,,,,,,,,,,,,,,,,,,,,,,,,,,,,,,,,,,,,,,,,,,,,,,,,,,,,,,,,,,,,,,,,,,,,,,,,,,,,,,,,,,,
1606530627.011816,9.000000,0.000000,4212.179688,4231.794922,4212.948730,4174.230957,4179.871582,4214.743652,4197.307617,4201.153809,4202.051270,4209.230957,4191.153809,4214.743652,4291.794922,4199.358887,3622.000000,0.000000,,,,0.000000,4.000000,4.000000,4.000000,4.000000,4.000000,4.000000,4.000000,4.000000,4.000000,4.000000,4.000000,4.000000,4.000000,4.000000,100.000000,,,,,,,,,,,,,,,,,,,,,,,,,,,,,,,,,,,,,,,,,,,,,,,,,,,,,,,,,,,,,,,,,,,,,,,,,,,,,,,,,,,,,,,,,,,,,,,,,,,,,,,,,,,,,,,,,
1606530627.019712,10.000000,0.000000,4209.615234,4237.692383,4198.846191,4158.589844,4155.384766,4215.256348,4200.512695,4198.974121,4198.846191,4200.641113,4182.820313,4210.769043,4285.000000,4199.743652,3604.000000,0.000000,,,,0.000000,4.000000,4.000000,4.000000,4.000000,4.000000,4.000000,4.000000,4.000000,4.000000,4.000000,4.000000,4.000000,4.000000,4.000000,100.000000,,,,,,,,,,,,,,,,,,,,,,,,,,,,,,,,,,,,,,,,,,,,,,,,,,,,,,,,,,,,,,,,,,,,,,,,,,,,,,,,,,,,,,,,,,,,,,,,,,,,,,,,,,,,,,,,,
1606530627.027707,11.000000,0.000000,4236.025879,4267.692383,4218.717773,4182.692383,4173.589844,4214.487305,4212.692383,4203.333496,4204.743652,4194.487305,4193.461426,4224.102539,4305.384766,4219.487305,3517.000000,0.000000,,,,0.000000,4.000000,4.000000,4.000000,4.000000,4.000000,4.000000,4.000000,4.000000,4.000000,4.000000,4.000000,4.000000,4.000000,4.000000,100.000000,,,,,,,,,,,,,,,,,,,,,,,,,,,,,,,,,,,,,,,,,,,,,,,,,,,,,,,,,,,,,,,,,,,,,,,,,,,,,,,,,,,,,,,,,,,,,,,,,,,,,,,,,,,,,,,,,
1606530627.035403,12.000000,0.000000,4273.846191,4297.307617,4238.974121,4210.641113,4201.410156,4206.794922,4207.948730,4204.102539,4207.436035,4201.282227,4201.922852,4239.743652,4325.641113,4239.358887,3541.000000,0.000000,,,,0.000000,4.000000,4.000000,4.000000,4.000000,4.000000,4.000000,4.000000,4.000000,4.000000,4.000000,4.000000,4.000000,4.000000,4.000000,100.000000,3.000000,0.000000,0.654431,-0.502441,-0.465271,-0.320618,0.945815,-0.379400,0.048829,-31.403067,-122.023346,18.542763,,,,,,,,,,,,,,,,,,,,,,,,,,,,,,,,2.547404,1.201290,1.037057,0.357947,0.182447,1.517629,1.073009,0.836973,0.341513,0.153536,0.902837,1.038289,0.468037,0.259466,0.102540,1.228585,0.831480,0.538332,0.307439,0.092036,1.390928,1.857377,0.740558,0.296949,0.113757,2.514626,1.056717,0.712922,0.234281,0.195329,1.503045,0.951389,0.227392,0.197868,0.092862,2.746691,1.792723,0.705884,0.299537,0.183949,1.625291,2.288741,0.426315,0.422391,0.174637,2.542663,2.410700,0.626976,0.438234,0.204227,1.471909,2.261944,0.809489,0.386831,0.314910,1.484358,1.396433,0.856331,0.477443,0.123717,2.225520,3.166578,1.134677,0.530108,0.583634,1.651472,1.259971,1.037191,0.768680,0.190884
1606530627.043099,13.000000,0.000000,4288.205078,4302.436035,4232.436035,4205.128418,4188.077148,4201.794922,4200.512695,4195.769043,4202.436035,4195.897461,4194.358887,4241.282227,4314.230957,4241.538574,3352.000000,0.000000,,,,0.000000,4.000000,4.000000,4.000000,4.000000,4.000000,4.000000,4.000000,4.000000,4.000000,4.000000,4.000000,4.000000,4.000000,4.000000,100.000000,,,,,,,,,,,,,,,,,,,,,,,,,,,,,,,,,,,,,,,,,,,,,,,,,,,,,,,,,,,,,,,,,,,,,,,,,,,,,,,,,,,,,,,,,,,,,,,,,,,,,,,,,,,,,,,,,
1606530627.050795,14.000000,0.000000,4292.307617,4309.230957,4232.436035,4198.461426,4166.025879,4202.692383,4203.205078,4192.051270,4203.077148,4188.461426,4190.256348,4241.922852,4315.384766,4248.846191,3604.000000,0.000000,,,,0.000000,4.000000,4.000000,4.000000,4.000000,4.000000,4.000000,4.000000,4.000000,4.000000,4.000000,4.000000,4.000000,4.000000,4.000000,100.000000,,,,,,,,,,,,,,,,,,,,,,,,,,,,,,,,,,,,,,,,,,,,,,,,,,,,,,,,,,,,,,,,,,,,,,,,,,,,,,,,,,,,,,,,,,,,,,,,,,,,,,,,,,,,,,,,,
1606530627.058591,15.000000,0.000000,4285.769043,4314.615234,4235.769043,4196.794922,4142.307617,4192.051270,4193.974121,4188.461426,4198.846191,4187.307617,4173.333496,4234.615234,4318.717773,4248.333496,3517.000000,0.000000,,,,0.000000,4.000000,4.000000,4.000000,4.000000,4.000000,4.000000,4.000000,4.000000,4.000000,4.000000,4.000000,4.000000,4.000000,4.000000,100.000000,,,,,,,,,,,,,,,,,,,,,,,,,,,,,,,,,,,,,,,,,,,,,,,,,,,,,,,,,,,,,,,,,,,,,,,,,,,,,,,,,,,,,,,,,,,,,,,,,,,,,,,,,,,,,,,,,
1606530627.066287,16.000000,0.000000,4268.333496,4301.153809,4223.974121,4194.230957,4112.179688,4177.563965,4182.948730,4180.256348,4186.410156,4177.948730,4153.461426,4213.461426,4287.563965,4218.974121,0.000000,0.000000,,,,0.000000,4.000000,4.000000,4.000000,4.000000,4.000000,4.000000,4.000000,4.000000,4.000000,4.000000,4.000000,4.000000,4.000000,4.000000,100.000000,4.000000,0.000000,0.652259,-0.506958,-0.461121,-0.323914,0.953140,-0.374029,0.057130,-31.253529,-122.172882,18.393225,,,,,,,,,,,,,,,,,,,,,,,,,,,,,,,,,,,,,,,,,,,,,,,,,,,,,,,,,,,,,,,,,,,,,,,,,,,,,,,,,,,,,,,,,,,,,,,,,,,,,
1606530627.073983,17.000000,0.000000,4274.615234,4303.205078,4230.256348,4219.743652,4092.179443,4188.333496,4199.615234,4191.025879,4192.179688,4185.512695,4178.589844,4219.102539,4300.128418,4211.282227,0.000000,0.000000,,,,0.000000,4.000000,4.000000,4.000000,4.000000,4.000000,4.000000,4.000000,4.000000,4.000000,4.000000,4.000000,4.000000,4.000000,4.000000,100.000000,,,,,,,,,,,,,,,,,,,,,,,,,,,,,,,,,,,,,,,,,,,,,,,,,,,,,,,,,,,,,,,,,,,,,,,,,,,,,,,,,,,,,,,,,,,,,,,,,,,,,,,,,,,,,,,,,
1606530627.081679,18.000000,0.000000,4278.846191,4313.461426,4240.769043,4221.794922,4100.256348,4201.922852,4209.102539,4204.102539,4204.743652,4202.179688,4195.769043,4234.102539,4338.589844,4222.307617,0.000000,0.000000,,,,0.000000,4.000000,4.000000,4.000000,4.000000,4.000000,4.000000,4.000000,4.000000,4.000000,4.000000,4.000000,4.000000,4.000000,4.000000,100.000000,,,,,,,,,,,,,,,,,,,,,,,,,,,,,,,,,,,,,,,,,,,,,,,,,,,,,,,,,,,,,,,,,,,,,,,,,,,,,,,,,,,,,,,,,,,,,,,,,,,,,,,,,,,,,,,,,
1606530627.089474,19.000000,0.000000,4246.025879,4292.307617,4216.025879,4164.615234,4136.410156,4191.794922,4192.179688,4193.589844,4198.333496,4197.948730,4159.230957,4215.769043,4303.205078,4204.102539,0.000000,0.000000,,,,0.000000,4.000000,4.000000,4.000000,4.000000,4.000000,4.000000,4.000000,4.000000,4.000000,4.000000,4.000000,4.000000,4.000000,4.000000,100.000000,,,,,,,,,,,,,,,,,,,,,,,,,,,,,,,,,,,,,,,,,,,,,,,,,,,,,,,,,,,,,,,,,,,,,,,,,,,,,,,,,,,,,,,,,,,,,,,,,,,,,,,,,,,,,,,,,
1606530627.097170,20.000000,0.000000,4209.871582,4263.077148,4191.025879,4129.615234,4094.487061,4179.743652,4182.563965,4179.230957,4182.820313,4183.846191,4138.077148,4187.179688,4257.692383,4176.538574,0.000000,0.000000,,,,0.000000,4.000000,4.000000,4.000000,4.000000,4.000000,4.000000,4.000000,4.000000,4.000000,4.000000,4.000000,4.000000,4.000000,4.000000,100.000000,5.000000,0.000000,0.650852,-0.509644,-0.458679,-0.325989,0.954116,-0.381842,0.072267,-31.253529,-121.425194,16.748302,,,,,,,,,,,,,,,,,,,,,,,,,,,,,,,,,,,,,,,,,,,,,,,,,,,,,,,,,,,,,,,,,,,,,,,,,,,,,,,,,,,,,,,,,,,,,,,,,,,,,
1606530627.104866,21.000000,0.000000,4205.384766,4269.487305,4201.410156,4152.948730,4012.435791,4192.179688,4197.179688,4184.615234,4181.282227,4185.897461,4144.615234,4190.897461,4292.307617,4183.205078,0.000000,0.000000,,,,0.000000,4.000000,4.000000,4.000000,4.000000,4.000000,4.000000,4.000000,4.000000,4.000000,4.000000,4.000000,4.000000,4.000000,4.000000,100.000000,,,,,,,,,,,,,,,,,,,,,,,,,,,,,,,,,,,,,,,,,,,,,,,,,,,,,,,,,,,,,,,,,,,,,,,,,,,,,,,,,,,,,,,,,,,,,,,,,,,,,,,,,,,,,,,,,
1606530627.112562,22.000000,0.000000,4221.538574,4287.692383,4220.000000,4183.974121,4066.666748,4204.743652,4216.025879,4196.025879,4198.333496,4196.538574,4152.948730,4220.897461,4324.358887,4211.410156,0.000000,0.000000,,,,0.000000,4.000000,4.000000,4.000000,4.000000,4.000000,4.000000,4.000000,4.000000,4.000000,4.000000,4.000000,4.000000,4.000000,4.000000,100.000000,,,,,,,,,,,,,,,,,,,,,,,,,,,,,,,,,,,,,,,,,,,,,,,,,,,,,,,,,,,,,,,,,,,,,,,,,,,,,,,,,,,,,,,,,,,,,,,,,,,,,,,,,,,,,,,,,
1606530627.120358,23.000000,0.000000,4232.179688,4291.666504,4223.717773,4193.077148,4168.717773,4194.871582,4214.615234,4203.077148,4218.717773,4212.948730,4176.153809,4235.000000,4316.282227,4222.436035,0.000000,0.000000,,,,0.000000,4.000000,4.000000,4.000000,4.000000,4.000000,4.000000,4.000000,4.000000,4.000000,4.000000,4.000000,4.000000,4.000000,4.000000,100.000000,,,,,,,,,,,,,,,,,,,,,,,,,,,,,,,,,,,,,,,,,,,,,,,,,,,,,,,,,,,,,,,,,,,,,,,,,,,,,,,,,,,,,,,,,,,,,,,,,,,,,,,,,,,,,,,,,
1606530627.128054,24.000000,0.000000,4227.820313,4294.487305,4218.589844,4181.922852,4117.179688,4187.436035,4204.487305,4206.410156,4223.077148,4229.487305,4191.153809,4227.820313,4328.205078,4210.000000,0.000000,0.000000,,,,0.000000,4.000000,4.000000,4.000000,4.000000,4.000000,4.000000,4.000000,4.000000,4.000000,4.000000,4.000000,4.000000,4.000000,4.000000,100.000000,6.000000,0.000000,0.650453,-0.510498,-0.457947,-0.326477,0.960952,-0.358892,0.061524,-31.702145,-123.369194,18.393225,,,,,,,,,,,,,,,,,,,,,,,,,,,,,,,,,,,,,,,,,,,,,,,,,,,,,,,,,,,,,,,,,,,,,,,,,,,,,,,,,,,,,,,,,,,,,,,,,,,,,
1606530627.135750,25.000000,0.000000,4202.563965,4282.307617,4201.025879,4147.436035,3992.179443,4180.128418,4198.077148,4184.615234,4203.846191,4203.333496,4169.615234,4208.205078,4321.538574,4185.256348,0.000000,0.000000,,,,0.000000,4.000000,4.000000,4.000000,4.000000,4.000000,4.000000,4.000000,4.000000,4.000000,4.000000,4.000000,4.000000,4.000000,4.000000,100.000000,,,,,,,,,,,,,,,,,,,,,,,,,,,,,,,,,,,,,,,,,,,,,,,,,,,,,,,,,,,,,,,,,,,,,,,,,,,,,,,,,,,,,,,,,,,,,,,,,,,,,,,,,,,,,,,,,
1606530627.143446,26.000000,0.000000,4195.128418,4282.179688,4197.436035,4151.538574,3991.153809,4168.974121,4198.589844,4169.743652,4194.358887,4184.102539,4154.615234,4201.666504,4302.179688,4182.820313,0.000000,0.000000,,,,0.000000,4.000000,4.000000,4.000000,4.000000,4.000000,4.000000,4.000000,4.000000,4.000000,4.000000,4.000000,4.000000,4.000000,4.000000,100.000000,,,,,,,,,,,,,,,,,,,,,,,,,,,,,,,,,,,,,,,,,,,,,,,,,,,,,,,,,,,,,,,,,,,,,,,,,,,,,,,,,,,,,,,,,,,,,,,,,,,,,,,,,,,,,,,,,
1606530627.151242,27.000000,0.000000,4216.025879,4299.230957,4221.410156,4200.769043,4029.358887,4176.153809,4210.000000,4184.358887,4206.538574,4208.846191,4163.589844,4214.615234,4319.358887,4197.051270,0.000000,0.000000,,,,0.000000,4.000000,4.000000,4.000000,4.000000,4.000000,4.000000,4.000000,4.000000,4.000000,4.000000,4.000000,4.000000,4.000000,4.000000,100.000000,,,,,,,,,,,,,,,,,,,,,,,,,,,,,,,,,,,,,,,,,,,,,,,,,,,,,,,,,,,,,,,,,,,,,,,,,,,,,,,,,,,,,,,,,,,,,,,,,,,,,,,,,,,,,,,,,
1606530627.159137,28.000000,0.000000,4230.769043,4307.051270,4239.743652,4212.436035,4012.564209,4192.179688,4226.153809,4203.589844,4222.179688,4231.282227,4166.282227,4228.205078,4344.487305,4205.897461,0.000000,0.000000,,,,0.000000,4.000000,4.000000,4.000000,4.000000,4.000000,4.000000,4.000000,4.000000,4.000000,4.000000,4.000000,4.000000,4.000000,4.000000,100.000000,7.000000,0.000000,0.650342,-0.510498,-0.458496,-0.325928,0.948257,-0.382330,0.059083,-32.001221,-123.369194,17.944611,,,,,,,,,,,,,,,,,,,,,,,,,,,,,,,,2.439087,1.161745,0.898061,0.324365,0.159426,1.560819,1.038861,0.710931,0.312576,0.115700,0.931866,1.216603,0.410299,0.232094,0.097483,1.485252,0.964826,0.474279,0.294069,0.082772,1.340850,1.885824,0.749701,0.266382,0.109665,1.841957,0.873202,0.724868,0.205847,0.177479,1.350343,0.667673,0.179475,0.175983,0.089804,2.654713,1.445269,0.772952,0.289870,0.175851,1.613459,2.132094,0.454394,0.360730,0.153861,2.989584,2.365886,0.779987,0.351365,0.160046,1.444571,2.394020,0.687502,0.341409,0.271531,1.262352,1.552515,0.763144,0.439302,0.113650,1.994619,3.145063,1.106990,0.505357,0.484611,1.629513,1.394800,0.927108,0.825281,0.164828
1606530627.167033,29.000000,0.000000,4236.666504,4324.487305,4248.846191,4201.153809,4011.794922,4189.743652,4234.743652,4221.666504,4239.487305,4248.205078,4179.871582,4243.974121,4366.538574,4224.358887,0.000000,0.000000,,,,0.000000,4.000000,4.000000,4.000000,4.000000,4.000000,4.000000,4.000000,4.000000,4.000000,4.000000,4.000000,4.000000,4.000000,4.000000,100.000000,,,,,,,,,,,,,,,,,,,,,,,,,,,,,,,,,,,,,,,,,,,,,,,,,,,,,,,,,,,,,,,,,,,,,,,,,,,,,,,,,,,,,,,,,,,,,,,,,,,,,,,,,,,,,,,,,
1606530627.174929,30.000000,0.000000,4235.000000,4336.410156,4248.461426,4204.230957,4012.692383,4174.358887,4223.846191,4224.358887,4240.128418,4249.743652,4197.051270,4247.692383,4373.461426,4231.794922,0.000000,0.000000,,,,0.000000,4.000000,4.000000,4.000000,4.000000,4.000000,4.000000,4.000000,4.000000,4.000000,4.000000,4.000000,4.000000,4.000000,4.000000,100.000000,,,,,,,,,,,,,,,,,,,,,,,,,,,,,,,,,,,,,,,,,,,,,,,,,,,,,,,,,,,,,,,,,,,,,,,,,,,,,,,,,,,,,,,,,,,,,,,,,,,,,,,,,,,,,,,,,
1606530627.182725,31.000000,0.000000,4227.948730,4321.922852,4237.563965,4208.974121,3973.205078,4169.358887,4215.128418,4204.615234,4218.717773,4224.871582,4196.538574,4235.384766,4361.282227,4218.974121,0.000000,0.000000,,,,0.000000,4.000000,4.000000,4.000000,4.000000,4.000000,4.000000,4.000000,4.000000,4.000000,4.000000,4.000000,4.000000,4.000000,4.000000,100.000000,,,,,,,,,,,,,,,,,,,,,,,,,,,,,,,,,,,,,,,,,,,,,,,,,,,,,,,,,,,,,,,,,,,,,,,,,,,,,,,,,,,,,,,,,,,,,,,,,,,,,,,,,,,,,,,,,
1606530627.190620,32.000000,0.000000,4227.436035,4306.922852,4240.256348,4206.922852,3938.076904,4166.666504,4222.051270,4192.436035,4206.794922,4214.230957,4186.538574,4230.000000,4356.153809,4217.563965,0.000000,0.000000,,,,0.000000,4.000000,4.000000,4.000000,4.000000,4.000000,4.000000,4.000000,4.000000,4.000000,4.000000,4.000000,4.000000,4.000000,4.000000,100.000000,8.000000,0.000000,0.650473,-0.510132,-0.459106,-0.325378,0.937026,-0.368658,0.048341,-32.599373,-123.817810,17.047379,,,,,,,,,,,,,,,,,,,,,,,,,,,,,,,,,,,,,,,,,,,,,,,,,,,,,,,,,,,,,,,,,,,,,,,,,,,,,,,,,,,,,,,,,,,,,,,,,,,,,
1606530627.198516,33.000000,0.000000,4234.358887,4316.794922,4256.666504,4208.461426,3968.333252,4163.077148,4227.179688,4206.025879,4220.000000,4239.102539,4179.230957,4236.794922,4371.153809,4231.025879,0.000000,0.000000,,,,0.000000,4.000000,4.000000,4.000000,4.000000,4.000000,4.000000,4.000000,4.000000,4.000000,4.000000,4.000000,4.000000,4.000000,4.000000,100.000000,,,,,,,,,,,,,,,,,,,,,,,,,,,,,,,,,,,,,,,,,,,,,,,,,,,,,,,,,,,,,,,,,,,,,,,,,,,,,,,,,,,,,,,,,,,,,,,,,,,,,,,,,,,,,,,,,
1606530627.206412,34.000000,0.000000,4227.051270,4316.538574,4251.666504,4200.897461,3972.051270,4161.025879,4219.743652,4205.384766,4219.230957,4238.333496,4172.820313,4227.051270,4366.666504,4219.102539,0.000000,0.000000,,,,0.000000,4.000000,4.000000,4.000000,4.000000,4.000000,4.000000,4.000000,4.000000,4.000000,4.000000,4.000000,4.000000,4.000000,4.000000,100.000000,,,,,,,,,,,,,,,,,,,,,,,,,,,,,,,,,,,,,,,,,,,,,,,,,,,,,,,,,,,,,,,,,,,,,,,,,,,,,,,,,,,,,,,,,,,,,,,,,,,,,,,,,,,,,,,,,
1606530627.214407,35.000000,0.000000,4199.871582,4290.897461,4217.820313,4165.384766,3908.974365,4153.974121,4207.692383,4179.230957,4189.871582,4201.025879,4151.538574,4194.358887,4335.384766,4179.358887,0.000000,0.000000,,,,0.000000,4.000000,4.000000,4.000000,4.000000,4.000000,4.000000,4.000000,4.000000,4.000000,4.000000,4.000000,4.000000,4.000000,4.000000,100.000000,,,,,,,,,,,,,,,,,,,,,,,,,,,,,,,,,,,,,,,,,,,,,,,,,,,,,,,,,,,,,,,,,,,,,,,,,,,,,,,,,,,,,,,,,,,,,,,,,,,,,,,,,,,,,,,,,
1606530627.222303,36.000000,0.000000,4193.717773,4287.051270,4205.641113,4160.128418,3920.769287,4157.307617,4212.820313,4174.615234,4181.538574,4196.794922,4142.307617,4190.256348,4335.000000,4172.179688,0.000000,0.000000,,,,0.000000,4.000000,4.000000,4.000000,4.000000,4.000000,4.000000,4.000000,4.000000,4.000000,4.000000,4.000000,4.000000,4.000000,4.000000,100.000000,9.000000,0.000000,0.650611,-0.509644,-0.460144,-0.324402,0.935073,-0.390631,0.055177,-33.496605,-122.322426,18.094149,,,,,,,,,,,,,,,,,,,,,,,,,,,,,,,,,,,,,,,,,,,,,,,,,,,,,,,,,,,,,,,,,,,,,,,,,,,,,,,,,,,,,,,,,,,,,,,,,,,,,
1606530627.230199,37.000000,0.000000,4218.077148,4303.461426,4233.077148,4198.077148,4001.153809,4165.897461,4224.615234,4189.358887,4200.512695,4223.717773,4147.948730,4211.538574,4352.179688,4197.307617,0.000000,0.000000,,,,0.000000,4.000000,4.000000,4.000000,4.000000,4.000000,4.000000,4.000000,4.000000,4.000000,4.000000,4.000000,4.000000,4.000000,4.000000,100.000000,,,,,,,,,,,,,,,,,,,,,,,,,,,,,,,,,,,,,,,,,,,,,,,,,,,,,,,,,,,,,,,,,,,,,,,,,,,,,,,,,,,,,,,,,,,,,,,,,,,,,,,,,,,,,,,,,
1606530627.237895,38.000000,0.000000,4232.820313,4301.538574,4248.589844,4200.512695,3991.923096,4153.077148,4218.717773,4186.025879,4202.820313,4222.563965,4156.666504,4218.077148,4350.897461,4206.794922,0.000000,0.000000,,,,0.000000,4.000000,4.000000,4.000000,4.000000,4.000000,4.000000,4.000000,4.000000,4.000000,4.000000,4.000000,4.000000,4.000000,4.000000,100.000000,,,,,,,,,,,,,,,,,,,,,,,,,,,,,,,,,,,,,,,,,,,,,,,,,,,,,,,,,,,,,,,,,,,,,,,,,,,,,,,,,,,,,,,,,,,,,,,,,,,,,,,,,,,,,,,,,
1606530627.245491,39.000000,0.000000,4230.897461,4295.128418,4243.077148,4192.820313,3942.692383,4142.179688,4218.589844,4182.307617,4195.641113,4209.743652,4170.128418,4221.922852,4354.615234,4208.077148,0.000000,0.000000,,,,0.000000,4.000000,4.000000,4.000000,4.000000,4.000000,4.000000,4.000000,4.000000,4.000000,4.000000,4.000000,4.000000,4.000000,4.000000,100.000000,,,,,,,,,,,,,,,,,,,,,,,,,,,,,,,,,,,,,,,,,,,,,,,,,,,,,,,,,,,,,,,,,,,,,,,,,,,,,,,,,,,,,,,,,,,,,,,,,,,,,,,,,,,,,,,,,
1606530627.253187,40.000000,0.000000,4235.128418,4303.974121,4246.666504,4201.410156,3935.897461,4151.666504,4238.205078,4195.128418,4203.974121,4225.256348,4168.846191,4231.794922,4367.820313,4221.153809,0.000000,0.000000,,,,0.000000,4.000000,4.000000,4.000000,4.000000,4.000000,4.000000,4.000000,4.000000,4.000000,4.000000,4.000000,4.000000,4.000000,4.000000,100.000000,10.000000,0.000000,0.650683,-0.509277,-0.460876,-0.323792,0.935561,-0.389166,0.062013,-32.599373,-121.574730,18.094149,,,,,,,,,,,,,,,,,,,,,,,,,,,,,,,,,,,,,,,,,,,,,,,,,,,,,,,,,,,,,,,,,,,,,,,,,,,,,,,,,,,,,,,,,,,,,,,,,,,,,
1606530627.260882,41.000000,0.000000,4223.589844,4285.897461,4243.333496,4166.794922,3917.051270,4138.589844,4236.538574,4186.153809,4195.897461,4218.333496,4153.205078,4222.051270,4348.589844,4210.769043,0.000000,0.000000,,,,0.000000,4.000000,4.000000,4.000000,4.000000,4.000000,4.000000,4.000000,4.000000,4.000000,4.000000,4.000000,4.000000,4.000000,4.000000,100.000000,,,,,,,,,,,,,,,,,,,,,,,,,,,,,,,,,,,,,,,,,,,,,,,,,,,,,,,,,,,,,,,,,,,,,,,,,,,,,,,,,,,,,,,,,,,,,,,,,,,,,,,,,,,,,,,,,
1606530627.268578,42.000000,0.000000,4209.230957,4268.205078,4230.128418,4150.641113,3953.718018,4113.846191,4215.256348,4172.436035,4183.846191,4197.820313,4160.769043,4211.282227,4339.743652,4194.230957,0.000000,0.000000,,,,0.000000,4.000000,4.000000,4.000000,4.000000,4.000000,4.000000,4.000000,4.000000,4.000000,4.000000,4.000000,4.000000,4.000000,4.000000,100.000000,,,,,,,,,,,,,,,,,,,,,,,,,,,,,,,,,,,,,,,,,,,,,,,,,,,,,,,,,,,,,,,,,,,,,,,,,,,,,,,,,,,,,,,,,,,,,,,,,,,,,,,,,,,,,,,,,
1606530627.276374,43.000000,0.000000,4225.769043,4291.666504,4236.794922,4204.102539,4015.000000,4122.179688,4216.922852,4180.897461,4196.025879,4213.974121,4170.769043,4223.974121,4367.563965,4207.948730,0.000000,0.000000,,,,0.000000,4.000000,4.000000,4.000000,4.000000,4.000000,4.000000,4.000000,4.000000,4.000000,4.000000,4.000000,4.000000,4.000000,4.000000,100.000000,,,,,,,,,,,,,,,,,,,,,,,,,,,,,,,,,,,,,,,,,,,,,,,,,,,,,,,,,,,,,,,,,,,,,,,,,,,,,,,,,,,,,,,,,,,,,,,,,,,,,,,,,,,,,,,,,
1606530627.284270,44.000000,0.000000,4230.000000,4293.205078,4240.512695,4205.384766,3960.128174,4125.769043,4223.077148,4179.487305,4198.461426,4214.358887,4157.179688,4228.077148,4356.025879,4211.666504,0.000000,0.000000,,,,0.000000,4.000000,4.000000,4.000000,4.000000,4.000000,4.000000,4.000000,4.000000,4.000000,4.000000,4.000000,4.000000,4.000000,4.000000,100.000000,11.000000,0.000000,0.650788,-0.509094,-0.461060,-0.323608,0.934096,-0.391608,0.047364,-31.851683,-123.070114,18.542763,,,,,,,,,,,,,,,,,,,,,,,,,,,,,,,,2.586256,1.400243,0.779694,0.294630,0.148131,1.777135,1.137006,0.605797,0.280578,0.093550,1.038106,1.404114,0.384165,0.202136,0.102575,1.765863,1.108369,0.420611,0.275433,0.087873,1.396958,1.855278,0.811564,0.276356,0.143215,1.481702,0.723112,0.725717,0.191473,0.164271,1.285529,0.464088,0.152460,0.173037,0.088199,2.802243,1.115328,0.841684,0.288769,0.172725,1.923221,1.836329,0.515221,0.305226,0.146110,3.623031,2.201505,0.926314,0.304959,0.131255,1.734677,2.447999,0.601103,0.324062,0.251895,1.281126,1.681775,0.658033,0.394301,0.114963,2.084773,3.130867,1.105169,0.506393,0.405874,1.860543,1.585352,0.832942,0.848054,0.161407
1606530627.291966,45.000000,0.000000,4218.077148,4272.051270,4234.615234,4166.922852,3931.538574,4111.794922,4215.384766,4172.179688,4187.563965,4196.794922,4161.538574,4224.102539,4339.358887,4203.077148,0.000000,0.000000,,,,0.000000,4.000000,4.000000,4.000000,4.000000,4.000000,4.000000,4.000000,4.000000,4.000000,4.000000,4.000000,4.000000,4.000000,4.000000,100.000000,,,,,,,,,,,,,,,,,,,,,,,,,,,,,,,,,,,,,,,,,,,,,,,,,,,,,,,,,,,,,,,,,,,,,,,,,,,,,,,,,,,,,,,,,,,,,,,,,,,,,,,,,,,,,,,,,
1606530627.299662,46.000000,0.000000,4232.307617,4286.282227,4250.256348,4194.871582,3995.128174,4122.179688,4218.589844,4180.769043,4194.871582,4219.358887,4178.077148,4232.051270,4363.333496,4211.153809,0.000000,0.000000,,,,0.000000,4.000000,4.000000,4.000000,4.000000,4.000000,4.000000,4.000000,4.000000,4.000000,4.000000,4.000000,4.000000,4.000000,4.000000,100.000000,,,,,,,,,,,,,,,,,,,,,,,,,,,,,,,,,,,,,,,,,,,,,,,,,,,,,,,,,,,,,,,,,,,,,,,,,,,,,,,,,,,,,,,,,,,,,,,,,,,,,,,,,,,,,,,,,
1606530627.307457,47.000000,0.000000,4240.384766,4300.769043,4254.487305,4211.538574,3994.230713,4138.333496,4225.769043,4184.743652,4205.641113,4239.102539,4169.743652,4231.666504,4365.384766,4217.820313,0.000000,0.000000,,,,0.000000,4.000000,4.000000,4.000000,4.000000,4.000000,4.000000,4.000000,4.000000,4.000000,4.000000,4.000000,4.000000,4.000000,4.000000,100.000000,,,,,,,,,,,,,,,,,,,,,,,,,,,,,,,,,,,,,,,,,,,,,,,,,,,,,,,,,,,,,,,,,,,,,,,,,,,,,,,,,,,,,,,,,,,,,,,,,,,,,,,,,,,,,,,,,
1606530627.315153,48.000000,0.000000,4232.563965,4285.256348,4244.615234,4194.102539,3962.692383,4135.384766,4224.230957,4182.692383,4201.282227,4229.230957,4159.743652,4229.487305,4353.846191,4219.615234,0.000000,0.000000,,,,0.000000,4.000000,4.000000,4.000000,4.000000,4.000000,4.000000,4.000000,4.000000,4.000000,4.000000,4.000000,4.000000,4.000000,4.000000,100.000000,12.000000,0.000000,0.651092,-0.508423,-0.461670,-0.323181,0.931167,-0.396002,0.057618,-30.954453,-122.023346,18.094149,,,,,,,,,,,,,,,,,,,,,,,,,,,,,,,,,,,,,,,,,,,,,,,,,,,,,,,,,,,,,,,,,,,,,,,,,,,,,,,,,,,,,,,,,,,,,,,,,,,,,
1606530627.323049,49.000000,0.000000,4233.333496,4264.743652,4250.769043,4186.794922,3957.051270,4122.692383,4214.358887,4176.153809,4188.333496,4209.487305,4160.769043,4228.333496,4348.077148,4214.230957,0.000000,0.000000,,,,0.000000,4.000000,4.000000,4.000000,4.000000,4.000000,4.000000,4.000000,4.000000,4.000000,4.000000,4.000000,4.000000,4.000000,4.000000,100.000000,,,,,,,,,,,,,,,,,,,,,,,,,,,,,,,,,,,,,,,,,,,,,,,,,,,,,,,,,,,,,,,,,,,,,,,,,,,,,,,,,,,,,,,,,,,,,,,,,,,,,,,,,,,,,,,,,
1606530627.331045,50.000000,0.000000,4229.230957,4256.794922,4257.051270,4173.205078,3955.512939,4112.051270,4203.717773,4162.820313,4176.666504,4182.692383,4154.358887,4215.769043,4323.846191,4195.512695,0.000000,0.000000,,,,0.000000,4.000000,4.000000,4.000000,4.000000,4.000000,4.000000,4.000000,4.000000,4.000000,4.000000,4.000000,4.000000,4.000000,4.000000,100.000000,,,,,,,,,,,,,,,,,,,,,,,,,,,,,,,,,,,,,,,,,,,,,,,,,,,,,,,,,,,,,,,,,,,,,,,,,,,,,,,,,,,,,,,,,,,,,,,,,,,,,,,,,,,,,,,,,
1606530627.338940,51.000000,0.000000,4223.461426,4267.179688,4250.769043,4180.256348,4002.692383,4118.717773,4214.871582,4174.358887,4186.666504,4196.153809,4143.974121,4209.615234,4323.846191,4192.692383,0.000000,0.000000,,,,0.000000,4.000000,4.000000,4.000000,4.000000,4.000000,4.000000,4.000000,4.000000,4.000000,4.000000,4.000000,4.000000,4.000000,4.000000,100.000000,,,,,,,,,,,,,,,,,,,,,,,,,,,,,,,,,,,,,,,,,,,,,,,,,,,,,,,,,,,,,,,,,,,,,,,,,,,,,,,,,,,,,,,,,,,,,,,,,,,,,,,,,,,,,,,,,
1606530627.346836,52.000000,0.000000,4202.820313,4251.794922,4221.282227,4176.538574,3998.846191,4126.282227,4227.179688,4181.025879,4186.794922,4214.358887,4125.512695,4198.461426,4327.948730,4185.256348,0.000000,0.000000,,,,0.000000,4.000000,4.000000,4.000000,4.000000,4.000000,4.000000,4.000000,4.000000,4.000000,4.000000,4.000000,4.000000,4.000000,4.000000,100.000000,13.000000,0.000000,0.651612,-0.507629,-0.461853,-0.323120,0.937026,-0.388678,0.069825,-31.702145,-121.873810,18.692303,,,,,,,,,,,,,,,,,,,,,,,,,,,,,,,,,,,,,,,,,,,,,,,,,,,,,,,,,,,,,,,,,,,,,,,,,,,,,,,,,,,,,,,,,,,,,,,,,,,,,
1606530627.354732,53.000000,0.000000,4178.461426,4225.128418,4197.307617,4147.948730,3956.538574,4113.333496,4213.717773,4162.820313,4170.256348,4183.589844,4125.769043,4176.922852,4302.051270,4159.743652,0.000000,0.000000,,,,0.000000,4.000000,4.000000,4.000000,4.000000,4.000000,4.000000,4.000000,4.000000,4.000000,4.000000,4.000000,4.000000,4.000000,4.000000,100.000000,,,,,,,,,,,,,,,,,,,,,,,,,,,,,,,,,,,,,,,,,,,,,,,,,,,,,,,,,,,,,,,,,,,,,,,,,,,,,,,,,,,,,,,,,,,,,,,,,,,,,,,,,,,,,,,,,
1606530627.362628,54.000000,0.000000,4199.743652,4241.410156,4223.717773,4158.589844,3986.025635,4108.333496,4208.461426,4168.717773,4178.077148,4172.307617,4132.051270,4183.461426,4311.025879,4167.051270,0.000000,0.000000,,,,0.000000,4.000000,4.000000,4.000000,4.000000,4.000000,4.000000,4.000000,4.000000,4.000000,4.000000,4.000000,4.000000,4.000000,4.000000,100.000000,,,,,,,,,,,,,,,,,,,,,,,,,,,,,,,,,,,,,,,,,,,,,,,,,,,,,,,,,,,,,,,,,,,,,,,,,,,,,,,,,,,,,,,,,,,,,,,,,,,,,,,,,,,,,,,,,
1606530627.370623,55.000000,0.000000,4234.743652,4266.794922,4259.102539,4197.179688,4033.974365,4130.641113,4234.743652,4198.205078,4200.256348,4208.461426,4129.487305,4214.358887,4344.230957,4200.769043,0.000000,0.000000,,,,0.000000,4.000000,4.000000,4.000000,4.000000,4.000000,4.000000,4.000000,4.000000,4.000000,4.000000,4.000000,4.000000,4.000000,4.000000,100.000000,,,,,,,,,,,,,,,,,,,,,,,,,,,,,,,,,,,,,,,,,,,,,,,,,,,,,,,,,,,,,,,,,,,,,,,,,,,,,,,,,,,,,,,,,,,,,,,,,,,,,,,,,,,,,,,,,
1606530627.378519,56.000000,0.000000,4232.307617,4268.717773,4254.102539,4202.563965,4049.871826,4146.922852,4252.692383,4205.512695,4212.948730,4227.051270,4166.282227,4224.871582,4342.051270,4212.307617,0.000000,0.000000,,,,0.000000,4.000000,4.000000,4.000000,4.000000,4.000000,4.000000,4.000000,4.000000,4.000000,4.000000,4.000000,4.000000,4.000000,4.000000,100.000000,14.000000,0.000000,0.652476,-0.505981,-0.462952,-0.322388,0.938003,-0.376471,0.070314,-30.655375,-122.322426,19.290455,,,,,,,,,,,,,,,,,,,,,,,,,,,,,,,,,,,,,,,,,,,,,,,,,,,,,,,,,,,,,,,,,,,,,,,,,,,,,,,,,,,,,,,,,,,,,,,,,,,,,
1606530627.386415,57.000000,0.000000,4221.794922,4260.512695,4242.692383,4202.051270,4031.538574,4138.205078,4235.769043,4189.487305,4211.025879,4211.922852,4191.410156,4208.205078,4326.666504,4198.589844,0.000000,0.000000,,,,0.000000,4.000000,4.000000,4.000000,4.000000,4.000000,4.000000,4.000000,4.000000,4.000000,4.000000,4.000000,4.000000,4.000000,4.000000,100.000000,,,,,,,,,,,,,,,,,,,,,,,,,,,,,,,,,,,,,,,,,,,,,,,,,,,,,,,,,,,,,,,,,,,,,,,,,,,,,,,,,,,,,,,,,,,,,,,,,,,,,,,,,,,,,,,,,
1606530627.394110,58.000000,0.000000,4226.922852,4252.436035,4248.846191,4201.025879,4008.333252,4124.871582,4217.179688,4181.538574,4201.025879,4196.922852,4157.179688,4196.153809,4325.128418,4185.128418,0.000000,0.000000,,,,0.000000,4.000000,4.000000,4.000000,4.000000,4.000000,4.000000,4.000000,4.000000,4.000000,4.000000,4.000000,4.000000,4.000000,4.000000,100.000000,,,,,,,,,,,,,,,,,,,,,,,,,,,,,,,,,,,,,,,,,,,,,,,,,,,,,,,,,,,,,,,,,,,,,,,,,,,,,,,,,,,,,,,,,,,,,,,,,,,,,,,,,,,,,,,,,
1606530627.401906,59.000000,0.000000,4228.589844,4248.974121,4252.307617,4173.717773,4036.410156,4125.000000,4223.974121,4187.179688,4204.487305,4200.384766,4133.846191,4201.025879,4334.743652,4186.410156,0.000000,0.000000,,,,0.000000,4.000000,4.000000,4.000000,4.000000,4.000000,4.000000,4.000000,4.000000,4.000000,4.000000,4.000000,4.000000,4.000000,4.000000,100.000000,,,,,,,,,,,,,,,,,,,,,,,,,,,,,,,,,,,,,,,,,,,,,,,,,,,,,,,,,,,,,,,,,,,,,,,,,,,,,,,,,,,,,,,,,,,,,,,,,,,,,,,,,,,,,,,,,
1606530627.409802,60.000000,0.000000,4222.948730,4247.051270,4247.692383,4168.333496,4064.230713,4126.025879,4234.871582,4191.025879,4209.743652,4207.820313,4149.358887,4206.153809,4332.436035,4191.025879,0.000000,0.000000,,,,0.000000,4.000000,4.000000,4.000000,4.000000,4.000000,4.000000,4.000000,4.000000,4.000000,4.000000,4.000000,4.000000,4.000000,4.000000,100.000000,15.000000,0.000000,0.654056,-0.502930,-0.465271,-0.320618,0.953628,-0.360845,0.083009,-30.804913,-121.425194,17.944611,,,,,,,,,,,,,,,,,,,,,,,,,,,,,,,,3.216049,2.052677,0.737985,0.294125,0.156060,2.290299,1.541380,0.563873,0.267415,0.094686,1.213209,1.590096,0.413494,0.191526,0.125923,2.081777,1.323275,0.427822,0.324753,0.131522,1.633700,1.879669,1.002838,0.399691,0.326684,1.336546,0.631745,0.720713,0.195699,0.159219,1.351226,0.347182,0.155901,0.203848,0.092771,3.173874,0.854841,0.907923,0.305623,0.176374,2.556558,1.471057,0.591792,0.276553,0.151599,4.301669,1.948941,1.024442,0.312243,0.124509,2.332176,2.406094,0.559022,0.359171,0.264013,1.520880,1.801736,0.585350,0.361854,0.135317,2.479462,3.159086,1.131014,0.539473,0.374472,2.378005,1.877061,0.857918,0.838556,0.189594
1606530627.417698,61.000000,0.000000,4215.769043,4232.179688,4236.282227,4187.563965,4021.666748,4112.051270,4226.282227,4181.025879,4189.487305,4189.487305,4154.487305,4195.384766,4302.820313,4181.538574,0.000000,0.000000,,,,0.000000,4.000000,4.000000,4.000000,4.000000,4.000000,4.000000,4.000000,4.000000,4.000000,4.000000,4.000000,4.000000,4.000000,4.000000,100.000000,,,,,,,,,,,,,,,,,,,,,,,,,,,,,,,,,,,,,,,,,,,,,,,,,,,,,,,,,,,,,,,,,,,,,,,,,,,,,,,,,,,,,,,,,,,,,,,,,,,,,,,,,,,,,,,,,
1606530627.425593,62.000000,0.000000,4226.025879,4239.615234,4241.282227,4200.512695,4039.615479,4112.307617,4225.384766,4184.743652,4189.615234,4190.256348,4165.000000,4198.333496,4302.307617,4188.846191,0.000000,0.000000,,,,0.000000,4.000000,4.000000,4.000000,4.000000,4.000000,4.000000,4.000000,4.000000,4.000000,4.000000,4.000000,4.000000,4.000000,4.000000,100.000000,,,,,,,,,,,,,,,,,,,,,,,,,,,,,,,,,,,,,,,,,,,,,,,,,,,,,,,,,,,,,,,,,,,,,,,,,,,,,,,,,,,,,,,,,,,,,,,,,,,,,,,,,,,,,,,,,
1606530627.433489,63.000000,0.000000,4235.384766,4256.794922,4253.589844,4202.179688,4097.948730,4133.461426,4241.538574,4199.487305,4217.051270,4217.179688,4177.436035,4211.922852,4334.358887,4203.717773,0.000000,0.000000,,,,0.000000,4.000000,4.000000,4.000000,4.000000,4.000000,4.000000,4.000000,4.000000,4.000000,4.000000,4.000000,4.000000,4.000000,4.000000,100.000000,,,,,,,,,,,,,,,,,,,,,,,,,,,,,,,,,,,,,,,,,,,,,,,,,,,,,,,,,,,,,,,,,,,,,,,,,,,,,,,,,,,,,,,,,,,,,,,,,,,,,,,,,,,,,,,,,
1606530627.441385,64.000000,0.000000,4221.153809,4239.487305,4243.205078,4200.000000,4074.743652,4141.025879,4243.077148,4200.512695,4219.871582,4205.512695,4177.948730,4207.948730,4326.282227,4195.512695,3475.000000,0.000000,,,,0.000000,4.000000,4.000000,4.000000,4.000000,4.000000,4.000000,4.000000,4.000000,4.000000,4.000000,4.000000,4.000000,4.000000,4.000000,100.000000,16.000000,0.000000,0.655734,-0.499451,-0.468323,-0.318176,0.952163,-0.351080,0.074220,-31.851683,-123.070114,17.346457,,,,,,,,,,,,,,,,,,,,,,,,,,,,,,,,,,,,,,,,,,,,,,,,,,,,,,,,,,,,,,,,,,,,,,,,,,,,,,,,,,,,,,,,,,,,,,,,,,,,,
1606530627.449081,65.000000,0.000000,4215.000000,4232.563965,4231.410156,4199.358887,4075.256348,4136.922852,4231.025879,4196.025879,4211.666504,4191.282227,4181.538574,4198.077148,4296.794922,4194.102539,3500.000000,0.000000,,,,0.000000,4.000000,4.000000,4.000000,4.000000,4.000000,4.000000,4.000000,4.000000,4.000000,4.000000,4.000000,4.000000,4.000000,4.000000,100.000000,,,,,,,,,,,,,,,,,,,,,,,,,,,,,,,,,,,,,,,,,,,,,,,,,,,,,,,,,,,,,,,,,,,,,,,,,,,,,,,,,,,,,,,,,,,,,,,,,,,,,,,,,,,,,,,,,
1606530627.456976,66.000000,0.000000,4210.897461,4234.358887,4228.717773,4183.461426,4091.410156,4137.307617,4228.589844,4184.615234,4202.948730,4202.563965,4161.025879,4188.205078,4282.563965,4194.487305,3623.000000,0.000000,,,,0.000000,4.000000,4.000000,4.000000,4.000000,4.000000,4.000000,4.000000,4.000000,4.000000,4.000000,4.000000,4.000000,4.000000,4.000000,100.000000,,,,,,,,,,,,,,,,,,,,,,,,,,,,,,,,,,,,,,,,,,,,,,,,,,,,,,,,,,,,,,,,,,,,,,,,,,,,,,,,,,,,,,,,,,,,,,,,,,,,,,,,,,,,,,,,,
1606530627.464772,67.000000,0.000000,4203.589844,4217.948730,4229.743652,4168.589844,4069.615479,4138.077148,4234.230957,4180.512695,4192.051270,4189.615234,4148.461426,4190.000000,4283.974121,4180.256348,3625.000000,0.000000,,,,0.000000,4.000000,4.000000,4.000000,4.000000,4.000000,4.000000,4.000000,4.000000,4.000000,4.000000,4.000000,4.000000,4.000000,4.000000,100.000000,,,,,,,,,,,,,,,,,,,,,,,,,,,,,,,,,,,,,,,,,,,,,,,,,,,,,,,,,,,,,,,,,,,,,,,,,,,,,,,,,,,,,,,,,,,,,,,,,,,,,,,,,,,,,,,,,
1606530627.472468,68.000000,0.000000,4215.128418,4223.461426,4238.077148,4182.563965,4098.846191,4145.256348,4236.538574,4194.487305,4204.871582,4208.077148,4184.615234,4206.538574,4307.948730,4186.666504,3656.000000,0.000000,,,,0.000000,4.000000,4.000000,4.000000,4.000000,4.000000,4.000000,4.000000,4.000000,4.000000,4.000000,4.000000,4.000000,4.000000,4.000000,100.000000,17.000000,0.000000,0.656678,-0.497437,-0.470215,-0.316589,0.957534,-0.356451,0.071778,-31.253529,-123.369194,17.944611,,,,,,,,,,,,,,,,,,,,,,,,,,,,,,,,,,,,,,,,,,,,,,,,,,,,,,,,,,,,,,,,,,,,,,,,,,,,,,,,,,,,,,,,,,,,,,,,,,,,,
1606530627.480364,69.000000,0.000000,4219.871582,4238.333496,4235.769043,4200.769043,4138.974121,4155.897461,4232.179688,4196.025879,4230.512695,4254.615234,4199.102539,4207.563965,4312.436035,4204.230957,3429.000000,0.000000,,,,0.000000,4.000000,4.000000,4.000000,4.000000,4.000000,4.000000,4.000000,4.000000,4.000000,4.000000,4.000000,4.000000,4.000000,4.000000,100.000000,,,,,,,,,,,,,,,,,,,,,,,,,,,,,,,,,,,,,,,,,,,,,,,,,,,,,,,,,,,,,,,,,,,,,,,,,,,,,,,,,,,,,,,,,,,,,,,,,,,,,,,,,,,,,,,,,
1606530627.488260,70.000000,0.000000,4209.743652,4227.563965,4226.666504,4195.000000,4114.102539,4154.615234,4230.769043,4185.897461,4232.436035,4208.717773,4147.948730,4195.512695,4281.153809,4197.436035,3069.000000,0.000000,,,,0.000000,4.000000,4.000000,4.000000,4.000000,4.000000,4.000000,4.000000,4.000000,4.000000,4.000000,4.000000,4.000000,4.000000,4.000000,100.000000,,,,,,,,,,,,,,,,,,,,,,,,,,,,,,,,,,,,,,,,,,,,,,,,,,,,,,,,,,,,,,,,,,,,,,,,,,,,,,,,,,,,,,,,,,,,,,,,,,,,,,,,,,,,,,,,,
1606530627.496055,71.000000,0.000000,4225.769043,4232.820313,4241.538574,4203.974121,4112.179688,4153.205078,4230.897461,4186.922852,4223.846191,4186.666504,4141.025879,4205.769043,4271.538574,4196.538574,3252.000000,0.000000,,,,0.000000,4.000000,4.000000,4.000000,4.000000,4.000000,4.000000,4.000000,4.000000,4.000000,4.000000,4.000000,4.000000,4.000000,4.000000,100.000000,,,,,,,,,,,,,,,,,,,,,,,,,,,,,,,,,,,,,,,,,,,,,,,,,,,,,,,,,,,,,,,,,,,,,,,,,,,,,,,,,,,,,,,,,,,,,,,,,,,,,,,,,,,,,,,,,
1606530627.503751,72.000000,0.000000,4246.410156,4257.051270,4258.205078,4221.922852,4150.641113,4162.051270,4224.615234,4189.487305,4227.179688,4275.128418,4200.897461,4218.974121,4285.897461,4215.641113,3351.000000,0.000000,,,,0.000000,4.000000,4.000000,4.000000,4.000000,4.000000,4.000000,4.000000,4.000000,4.000000,4.000000,4.000000,4.000000,4.000000,4.000000,100.000000,18.000000,0.000000,0.658257,-0.493713,-0.474243,-0.313110,0.963394,-0.361334,0.061524,-31.851683,-123.518730,17.795071,,,,,,,,,,,,,,,,,,,,,,,,,,,,,,,,,,,,,,,,,,,,,,,,,,,,,,,,,,,,,,,,,,,,,,,,,,,,,,,,,,,,,,,,,,,,,,,,,,,,,
