title:parker new nback trial 5, start timestamp:1606526455.997419, stop timestamp:1606526514.794622, headset type:EPOCPLUS, headset serial:4A2C14BBFA, headset firmware:634, channels:151, sampling rate:eeg_128;mot_32;pm_0.1;pow_8, samples:7543      , version:2.0
Timestamp,EEG.Counter,EEG.Interpolated,EEG.AF3,EEG.F7,EEG.F3,EEG.FC5,EEG.T7,EEG.P7,EEG.O1,EEG.O2,EEG.P8,EEG.T8,EEG.FC6,EEG.F4,EEG.F8,EEG.AF4,EEG.RawCq,EEG.Battery,MarkerIndex,MarkerType,MarkerValueInt,EEG.MarkerHardware,CQ.AF3,CQ.F7,CQ.F3,CQ.FC5,CQ.T7,CQ.P7,CQ.O1,CQ.O2,CQ.P8,CQ.T8,CQ.FC6,CQ.F4,CQ.F8,CQ.AF4,CQ.Overall,MOT.CounterMems,MOT.InterpolatedMems,MOT.Q0,MOT.Q1,MOT.Q2,MOT.Q3,MOT.AccX,MOT.AccY,MOT.AccZ,MOT.MagX,MOT.MagY,MOT.MagZ,PM.Engagement.IsActive,PM.Engagement.Scaled,PM.Engagement.Raw,PM.Engagement.Min,PM.Engagement.Max,PM.Excitement.IsActive,PM.Excitement.Scaled,PM.Excitement.Raw,PM.Excitement.Min,PM.Excitement.Max,PM.LongTermExcitement,PM.Stress.IsActive,PM.Stress.Scaled,PM.Stress.Raw,PM.Stress.Min,PM.Stress.Max,PM.Relaxation.IsActive,PM.Relaxation.Scaled,PM.Relaxation.Raw,PM.Relaxation.Min,PM.Relaxation.Max,PM.Interest.IsActive,PM.Interest.Scaled,PM.Interest.Raw,PM.Interest.Min,PM.Interest.Max,PM.Focus.IsActive,PM.Focus.Scaled,PM.Focus.Raw,PM.Focus.Min,PM.Focus.Max,POW.AF3.Theta,POW.AF3.Alpha,POW.AF3.BetaL,POW.AF3.BetaH,POW.AF3.Gamma,POW.F7.Theta,POW.F7.Alpha,POW.F7.BetaL,POW.F7.BetaH,POW.F7.Gamma,POW.F3.Theta,POW.F3.Alpha,POW.F3.BetaL,POW.F3.BetaH,POW.F3.Gamma,POW.FC5.Theta,POW.FC5.Alpha,POW.FC5.BetaL,POW.FC5.BetaH,POW.FC5.Gamma,POW.T7.Theta,POW.T7.Alpha,POW.T7.BetaL,POW.T7.BetaH,POW.T7.Gamma,POW.P7.Theta,POW.P7.Alpha,POW.P7.BetaL,POW.P7.BetaH,POW.P7.Gamma,POW.O1.Theta,POW.O1.Alpha,POW.O1.BetaL,POW.O1.BetaH,POW.O1.Gamma,POW.O2.Theta,POW.O2.Alpha,POW.O2.BetaL,POW.O2.BetaH,POW.O2.Gamma,POW.P8.Theta,POW.P8.Alpha,POW.P8.BetaL,POW.P8.BetaH,POW.P8.Gamma,POW.T8.Theta,POW.T8.Alpha,POW.T8.BetaL,POW.T8.BetaH,POW.T8.Gamma,POW.FC6.Theta,POW.FC6.Alpha,POW.FC6.BetaL,POW.FC6.BetaH,POW.FC6.Gamma,POW.F4.Theta,POW.F4.Alpha,POW.F4.BetaL,POW.F4.BetaH,POW.F4.Gamma,POW.F8.Theta,POW.F8.Alpha,POW.F8.BetaL,POW.F8.BetaH,POW.F8.Gamma,POW.AF4.Theta,POW.AF4.Alpha,POW.AF4.BetaL,POW.AF4.BetaH,POW.AF4.Gamma
1606526455.997419,95.000000,0.000000,4286.153809,4140.769043,4303.974121,4323.846191,4320.000000,4331.153809,4310.256348,4276.922852,4285.897461,4319.102539,4336.282227,4294.358887,4248.974121,4299.743652,3502.000000,2.000000,,,,0.000000,4.000000,4.000000,4.000000,4.000000,4.000000,4.000000,4.000000,4.000000,4.000000,4.000000,4.000000,4.000000,4.000000,4.000000,100.000000,,,,,,,,,,,,,,,,,,,,,,,,,,,,,,,,,,,,,,,,,,,,15.707002,2.472270,3.235346,3.545016,4.365309,48.221188,2.743538,5.565139,3.154310,7.045420,7.739834,2.227990,2.480088,4.260448,5.193780,15.479700,2.601285,2.638909,2.367541,6.765008,7.882964,2.140414,2.938538,7.423428,5.788621,15.192023,1.632203,2.340452,1.898179,3.135406,10.509741,3.411964,3.166374,6.036240,7.703350,12.088221,1.410470,3.668354,4.821694,4.684251,9.784889,2.110239,4.692352,5.041841,5.493979,13.213418,1.514266,4.355101,6.757616,7.745237,11.333249,2.891372,6.236254,5.314002,6.057796,8.806593,2.062388,3.987800,4.370025,4.442542,289.330322,45.990570,24.492285,6.527012,6.275893,15.789320,5.504416,4.764265,4.746778,5.547375
1606526456.005315,96.000000,0.000000,4262.436035,4126.794922,4286.922852,4305.000000,4290.769043,4298.974121,4311.153809,4259.230957,4274.615234,4321.153809,4301.410156,4269.487305,4210.128418,4280.512695,3486.000000,2.000000,,,,0.000000,4.000000,4.000000,4.000000,4.000000,4.000000,4.000000,4.000000,4.000000,4.000000,4.000000,4.000000,4.000000,4.000000,4.000000,100.000000,24.000000,0.000000,0.354321,0.721436,-0.591553,-0.063660,-3.999939,3.999939,-3.999939,-31.253529,-105.873199,0.299077,,,,,,,,,,,,,,,,,,,,,,,,,,,,,,,,,,,,,,,,,,,,,,,,,,,,,,,,,,,,,,,,,,,,,,,,,,,,,,,,,,,,,,,,,,,,,,,,,,,,,
1606526456.013211,97.000000,0.000000,4257.179688,4099.615234,4285.769043,4293.077148,4276.794922,4294.743652,4280.512695,4252.307617,4258.461426,4308.077148,4291.410156,4268.077148,4199.743652,4273.846191,3211.000000,2.000000,,,,0.000000,4.000000,4.000000,4.000000,4.000000,4.000000,4.000000,4.000000,4.000000,4.000000,4.000000,4.000000,4.000000,4.000000,4.000000,100.000000,,,,,,,,,,,,,,,,,,,,,,,,,,,,,,,,,,,,,,,,,,,,,,,,,,,,,,,,,,,,,,,,,,,,,,,,,,,,,,,,,,,,,,,,,,,,,,,,,,,,,,,,,,,,,,,,,
1606526456.021106,98.000000,0.000000,4269.871582,4115.512695,4302.051270,4306.025879,4305.256348,4335.641113,4264.871582,4258.717773,4263.461426,4292.307617,4310.384766,4279.102539,4232.051270,4284.487305,3445.000000,2.000000,,,,0.000000,4.000000,4.000000,4.000000,4.000000,4.000000,4.000000,4.000000,4.000000,4.000000,4.000000,4.000000,4.000000,4.000000,4.000000,100.000000,,,,,,,,,,,,,,,,,,,,,,,,,,,,,,,,,,,,,,,,,,,,,,,,,,,,,,,,,,,,,,,,,,,,,,,,,,,,,,,,,,,,,,,,,,,,,,,,,,,,,,,,,,,,,,,,,
1606526456.028902,99.000000,0.000000,4273.077148,4122.307617,4302.948730,4300.769043,4307.307617,4334.743652,4290.897461,4266.538574,4272.563965,4280.384766,4302.179688,4280.641113,4235.897461,4285.769043,3502.000000,2.000000,,,,0.000000,4.000000,4.000000,4.000000,4.000000,4.000000,4.000000,4.000000,4.000000,4.000000,4.000000,4.000000,4.000000,4.000000,4.000000,100.000000,,,,,,,,,,,,,,,,,,,,,,,,,,,,,,,,,,,,,,,,,,,,,,,,,,,,,,,,,,,,,,,,,,,,,,,,,,,,,,,,,,,,,,,,,,,,,,,,,,,,,,,,,,,,,,,,,
1606526456.036698,100.000000,0.000000,4255.641113,4097.307617,4282.820313,4275.000000,4281.794922,4289.487305,4287.820313,4258.205078,4262.820313,4282.692383,4290.897461,4268.205078,4206.153809,4275.256348,3486.000000,2.000000,,,,0.000000,4.000000,4.000000,4.000000,4.000000,4.000000,4.000000,4.000000,4.000000,4.000000,4.000000,4.000000,4.000000,4.000000,4.000000,100.000000,25.000000,0.000000,0.357842,0.721191,-0.589722,-0.063721,-3.999939,3.999939,-3.999939,-32.001221,-105.125504,0.000000,,,,,,,,,,,,,,,,,,,,,,,,,,,,,,,,,,,,,,,,,,,,,,,,,,,,,,,,,,,,,,,,,,,,,,,,,,,,,,,,,,,,,,,,,,,,,,,,,,,,,
1606526456.044394,101.000000,0.000000,4261.410156,4124.102539,4285.769043,4290.769043,4272.692383,4277.307617,4253.333496,4255.256348,4260.897461,4298.974121,4307.179688,4258.974121,4211.410156,4275.897461,3211.000000,2.000000,,,,0.000000,4.000000,4.000000,4.000000,4.000000,4.000000,4.000000,4.000000,4.000000,4.000000,4.000000,4.000000,4.000000,4.000000,4.000000,100.000000,,,,,,,,,,,,,,,,,,,,,,,,,,,,,,,,,,,,,,,,,,,,,,,,,,,,,,,,,,,,,,,,,,,,,,,,,,,,,,,,,,,,,,,,,,,,,,,,,,,,,,,,,,,,,,,,,
1606526456.052090,102.000000,0.000000,4282.179688,4160.000000,4310.897461,4331.666504,4308.717773,4301.666504,4272.563965,4281.538574,4293.589844,4321.282227,4320.000000,4278.461426,4234.487305,4291.794922,3445.000000,2.000000,,,,0.000000,4.000000,4.000000,4.000000,4.000000,4.000000,4.000000,4.000000,4.000000,4.000000,4.000000,4.000000,4.000000,4.000000,4.000000,100.000000,,,,,,,,,,,,,,,,,,,,,,,,,,,,,,,,,,,,,,,,,,,,,,,,,,,,,,,,,,,,,,,,,,,,,,,,,,,,,,,,,,,,,,,,,,,,,,,,,,,,,,,,,,,,,,,,,
1606526456.059686,103.000000,0.000000,4276.922852,4107.692383,4306.794922,4304.487305,4321.025879,4313.077148,4301.153809,4286.153809,4290.641113,4307.563965,4292.563965,4287.436035,4204.358887,4280.897461,3502.000000,2.000000,,,,0.000000,4.000000,4.000000,4.000000,4.000000,4.000000,4.000000,4.000000,4.000000,4.000000,4.000000,4.000000,4.000000,4.000000,4.000000,100.000000,,,,,,,,,,,,,,,,,,,,,,,,,,,,,,,,,,,,,,,,,,,,,,,,,,,,,,,,,,,,,,,,,,,,,,,,,,,,,,,,,,,,,,,,,,,,,,,,,,,,,,,,,,,,,,,,,
1606526456.067382,104.000000,0.000000,4246.153809,4066.923096,4275.512695,4271.794922,4293.461426,4304.102539,4286.794922,4269.871582,4263.461426,4295.256348,4274.358887,4259.102539,4179.487305,4257.436035,3486.000000,2.000000,,,,0.000000,4.000000,4.000000,4.000000,4.000000,4.000000,4.000000,4.000000,4.000000,4.000000,4.000000,4.000000,4.000000,4.000000,4.000000,100.000000,26.000000,0.000000,0.362162,0.719482,-0.587708,-0.076050,-3.999939,3.999939,-3.999939,-32.300297,-104.527351,1.196307,,,,,,,,,,,,,,,,,,,,,,,,,,,,,,,,,,,,,,,,,,,,,,,,,,,,,,,,,,,,,,,,,,,,,,,,,,,,,,,,,,,,,,,,,,,,,,,,,,,,,
1606526456.075078,105.000000,0.000000,4259.487305,4105.000000,4279.230957,4298.333496,4291.025879,4304.615234,4268.717773,4273.846191,4268.717773,4306.794922,4284.743652,4261.282227,4188.589844,4262.563965,3211.000000,2.000000,,,,0.000000,4.000000,4.000000,4.000000,4.000000,4.000000,4.000000,4.000000,4.000000,4.000000,4.000000,4.000000,4.000000,4.000000,4.000000,100.000000,,,,,,,,,,,,,,,,,,,,,,,,,,,,,,,,,,,,,,,,,,,,,,,,,,,,,,,,,,,,,,,,,,,,,,,,,,,,,,,,,,,,,,,,,,,,,,,,,,,,,,,,,,,,,,,,,
1606526456.082773,106.000000,0.000000,4266.153809,4138.846191,4290.384766,4298.717773,4298.461426,4294.871582,4262.436035,4275.256348,4272.563965,4296.538574,4290.256348,4274.358887,4180.384766,4271.282227,3445.000000,2.000000,,,,0.000000,4.000000,4.000000,4.000000,4.000000,4.000000,4.000000,4.000000,4.000000,4.000000,4.000000,4.000000,4.000000,4.000000,4.000000,100.000000,,,,,,,,,,,,,,,,,,,,,,,,,,,,,,,,,,,,,,,,,,,,,,,,,,,,,,,,,,,,,,,,,,,,,,,,,,,,,,,,,,,,,,,,,,,,,,,,,,,,,,,,,,,,,,,,,
1606526456.090669,107.000000,0.000000,4256.666504,4114.358887,4277.563965,4278.205078,4268.974121,4292.692383,4256.666504,4255.897461,4250.256348,4262.820313,4282.692383,4265.384766,4162.948730,4260.512695,3502.000000,2.000000,,,,0.000000,4.000000,4.000000,4.000000,4.000000,4.000000,4.000000,4.000000,4.000000,4.000000,4.000000,4.000000,4.000000,4.000000,4.000000,100.000000,,,,,,,,,,,,,,,,,,,,,,,,,,,,,,,,,,,,,,,,,,,,,,,,,,,,,,,,,,,,,,,,,,,,,,,,,,,,,,,,,,,,,,,,,,,,,,,,,,,,,,,,,,,,,,,,,
1606526456.098465,108.000000,0.000000,4256.794922,4069.102539,4278.461426,4300.384766,4270.000000,4300.000000,4262.179688,4259.358887,4260.641113,4282.948730,4293.461426,4264.615234,4177.307617,4264.230957,3486.000000,2.000000,,,,0.000000,4.000000,4.000000,4.000000,4.000000,4.000000,4.000000,4.000000,4.000000,4.000000,4.000000,4.000000,4.000000,4.000000,4.000000,100.000000,27.000000,0.000000,0.376063,0.716797,-0.581726,-0.079834,-3.999939,3.999939,-3.999939,-31.403067,-104.527351,0.897231,,,,,,,,,,,,,,,,,,,,,,,,,,,,,,,,,,,,,,,,,,,,,,,,,,,,,,,,,,,,,,,,,,,,,,,,,,,,,,,,,,,,,,,,,,,,,,,,,,,,,
1606526456.106161,109.000000,0.000000,4276.666504,4069.230713,4297.307617,4312.563965,4301.153809,4309.871582,4277.179688,4271.538574,4271.025879,4317.563965,4310.512695,4283.205078,4190.897461,4281.666504,3211.000000,2.000000,,,,0.000000,4.000000,4.000000,4.000000,4.000000,4.000000,4.000000,4.000000,4.000000,4.000000,4.000000,4.000000,4.000000,4.000000,4.000000,100.000000,,,,,,,,,,,,,,,,,,,,,,,,,,,,,,,,,,,,,,,,,,,,,,,,,,,,,,,,,,,,,,,,,,,,,,,,,,,,,,,,,,,,,,,,,,,,,,,,,,,,,,,,,,,,,,,,,
1606526456.114057,110.000000,0.000000,4276.282227,4103.846191,4290.256348,4303.846191,4293.589844,4303.717773,4281.025879,4261.410156,4241.153809,4289.230957,4306.538574,4277.051270,4174.743652,4277.307617,3445.000000,2.000000,,,,0.000000,4.000000,4.000000,4.000000,4.000000,4.000000,4.000000,4.000000,4.000000,4.000000,4.000000,4.000000,4.000000,4.000000,4.000000,100.000000,,,,,,,,,,,,,,,,,,,,,,,,,,,,,,,,,,,,,,,,,,,,,,,,,,,,,,,,,,,,,,,,,,,,,,,,,,,,,,,,,,,,,,,,,,,,,,,,,,,,,,,,,,,,,,,,,
1606526456.122052,111.000000,0.000000,4277.307617,4100.512695,4289.615234,4305.897461,4283.717773,4308.077148,4293.461426,4274.615234,4251.025879,4270.897461,4300.000000,4276.666504,4151.922852,4274.358887,3502.000000,2.000000,,,,0.000000,4.000000,4.000000,4.000000,4.000000,4.000000,4.000000,4.000000,4.000000,4.000000,4.000000,4.000000,4.000000,4.000000,4.000000,100.000000,,,,,,,,,,,,,,,,,,,,,,,,,,,,,,,,,,,,,,,,,,,,10.775657,2.166094,3.279869,3.121583,3.843660,26.909271,2.486044,4.632904,3.007294,6.603787,7.397650,2.270150,2.562466,3.855460,4.468969,12.263928,2.225918,2.573556,2.135852,5.789618,8.807938,2.057746,3.003116,7.427048,5.555951,11.945256,1.205009,2.326413,1.945043,2.953521,10.288845,3.212834,3.119518,5.614324,6.868014,11.593843,1.529408,3.618390,4.220604,4.136875,8.381895,2.348623,4.948750,4.410584,5.219632,11.308211,1.829400,4.181888,6.252229,7.307233,11.098732,2.947450,5.668795,4.822053,5.344162,7.579419,2.353960,4.281755,4.057952,4.022563,163.525635,25.743469,16.636347,4.815808,5.159134,11.439879,5.024258,4.722197,4.233984,5.010299
1606526456.129948,112.000000,0.000000,4277.820313,4062.179443,4294.487305,4306.153809,4286.153809,4311.025879,4305.769043,4293.461426,4287.051270,4312.307617,4300.384766,4284.102539,4134.102539,4278.717773,3486.000000,2.000000,,,,0.000000,4.000000,4.000000,4.000000,4.000000,4.000000,4.000000,4.000000,4.000000,4.000000,4.000000,4.000000,4.000000,4.000000,4.000000,100.000000,28.000000,0.000000,0.404972,-0.151855,0.896179,0.098999,-3.999939,3.999939,-3.999939,-32.449837,-105.125504,1.046769,,,,,,,,,,,,,,,,,,,,,,,,,,,,,,,,,,,,,,,,,,,,,,,,,,,,,,,,,,,,,,,,,,,,,,,,,,,,,,,,,,,,,,,,,,,,,,,,,,,,,
1606526456.137844,113.000000,0.000000,4272.820313,4038.718018,4282.307617,4293.461426,4264.230957,4302.948730,4276.922852,4275.897461,4274.743652,4314.487305,4305.512695,4267.692383,4138.077148,4272.692383,3211.000000,2.000000,,,,0.000000,4.000000,4.000000,4.000000,4.000000,4.000000,4.000000,4.000000,4.000000,4.000000,4.000000,4.000000,4.000000,4.000000,4.000000,100.000000,,,,,,,,,,,,,,,,,,,,,,,,,,,,,,,,,,,,,,,,,,,,,,,,,,,,,,,,,,,,,,,,,,,,,,,,,,,,,,,,,,,,,,,,,,,,,,,,,,,,,,,,,,,,,,,,,
1606526456.145739,114.000000,0.000000,4273.846191,4027.820557,4275.128418,4273.589844,4255.384766,4302.563965,4245.769043,4258.846191,4260.512695,4272.179688,4318.589844,4257.307617,4163.974121,4278.333496,3445.000000,2.000000,,,,0.000000,4.000000,4.000000,4.000000,4.000000,4.000000,4.000000,4.000000,4.000000,4.000000,4.000000,4.000000,4.000000,4.000000,4.000000,100.000000,,,,,,,,,,,,,,,,,,,,,,,,,,,,,,,,,,,,,,,,,,,,,,,,,,,,,,,,,,,,,,,,,,,,,,,,,,,,,,,,,,,,,,,,,,,,,,,,,,,,,,,,,,,,,,,,,
1606526456.153735,115.000000,0.000000,4271.666504,4008.205078,4278.974121,4266.410156,4269.230957,4313.589844,4253.077148,4272.436035,4280.384766,4292.436035,4334.102539,4265.769043,4183.846191,4293.461426,3502.000000,2.000000,,,,0.000000,4.000000,4.000000,4.000000,4.000000,4.000000,4.000000,4.000000,4.000000,4.000000,4.000000,4.000000,4.000000,4.000000,4.000000,100.000000,,,,,,,,,,,,,,,,,,,,,,,,,,,,,,,,,,,,,,,,,,,,,,,,,,,,,,,,,,,,,,,,,,,,,,,,,,,,,,,,,,,,,,,,,,,,,,,,,,,,,,,,,,,,,,,,,
1606526456.161631,116.000000,0.000000,4281.794922,3995.384521,4289.102539,4286.666504,4283.974121,4330.512695,4273.974121,4297.051270,4309.871582,4344.615234,4360.256348,4277.692383,4213.589844,4303.717773,3486.000000,2.000000,,,,0.000000,4.000000,4.000000,4.000000,4.000000,4.000000,4.000000,4.000000,4.000000,4.000000,4.000000,4.000000,4.000000,4.000000,4.000000,100.000000,29.000000,0.000000,0.306885,-0.187378,0.922913,0.137634,-3.999939,3.999939,-3.999939,-33.496605,-107.219040,2.093538,,,,,,,,,,,,,,,,,,,,,,,,,,,,,,,,,,,,,,,,,,,,,,,,,,,,,,,,,,,,,,,,,,,,,,,,,,,,,,,,,,,,,,,,,,,,,,,,,,,,,
1606526456.169327,117.000000,0.000000,4274.487305,3953.076904,4285.641113,4281.025879,4286.410156,4337.436035,4280.512695,4292.563965,4325.897461,4329.487305,4371.410156,4266.282227,4236.538574,4300.641113,3211.000000,2.000000,,,,0.000000,4.000000,4.000000,4.000000,4.000000,4.000000,4.000000,4.000000,4.000000,4.000000,4.000000,4.000000,4.000000,4.000000,4.000000,100.000000,,,,,,,,,,,,,,,,,,,,,,,,,,,,,,,,,,,,,,,,,,,,,,,,,,,,,,,,,,,,,,,,,,,,,,,,,,,,,,,,,,,,,,,,,,,,,,,,,,,,,,,,,,,,,,,,,
1606526456.177023,118.000000,0.000000,4261.794922,3888.718018,4275.256348,4238.589844,4266.025879,4330.128418,4299.102539,4287.436035,4315.128418,4301.922852,4361.794922,4256.153809,4231.666504,4285.897461,3445.000000,2.000000,,,,0.000000,4.000000,4.000000,4.000000,4.000000,4.000000,4.000000,4.000000,4.000000,4.000000,4.000000,4.000000,4.000000,4.000000,4.000000,100.000000,,,,,,,,,,,,,,,,,,,,,,,,,,,,,,,,,,,,,,,,,,,,,,,,,,,,,,,,,,,,,,,,,,,,,,,,,,,,,,,,,,,,,,,,,,,,,,,,,,,,,,,,,,,,,,,,,
1606526456.184818,119.000000,0.000000,4259.230957,3858.718018,4272.692383,4234.230957,4251.922852,4312.820313,4317.307617,4310.384766,4292.051270,4319.871582,4376.794922,4263.461426,4240.000000,4281.794922,3502.000000,2.000000,,,,0.000000,4.000000,4.000000,4.000000,4.000000,4.000000,4.000000,4.000000,4.000000,4.000000,4.000000,4.000000,4.000000,4.000000,4.000000,100.000000,,,,,,,,,,,,,,,,,,,,,,,,,,,,,,,,,,,,,,,,,,,,,,,,,,,,,,,,,,,,,,,,,,,,,,,,,,,,,,,,,,,,,,,,,,,,,,,,,,,,,,,,,,,,,,,,,
1606526456.192514,120.000000,0.000000,4268.589844,3813.461426,4289.102539,4238.846191,4256.410156,4296.794922,4324.358887,4331.410156,4298.589844,4331.410156,4410.256348,4286.153809,4272.307617,4295.512695,3486.000000,2.000000,,,,0.000000,4.000000,4.000000,4.000000,4.000000,4.000000,4.000000,4.000000,4.000000,4.000000,4.000000,4.000000,4.000000,4.000000,4.000000,100.000000,30.000000,0.000000,0.083027,0.279236,-0.934998,-0.202271,-3.999939,3.999939,-3.999939,-33.646145,-113.051041,4.486153,,,,,,,,,,,,,,,,,,,,,,,,,,,,,,,,,,,,,,,,,,,,,,,,,,,,,,,,,,,,,,,,,,,,,,,,,,,,,,,,,,,,,,,,,,,,,,,,,,,,,
1606526456.200210,121.000000,0.000000,4242.692383,3746.025635,4285.384766,4207.051270,4262.692383,4305.128418,4359.102539,4322.820313,4317.948730,4331.538574,4415.256348,4282.307617,4284.487305,4294.230957,3211.000000,2.000000,,,,0.000000,4.000000,4.000000,4.000000,4.000000,4.000000,4.000000,4.000000,4.000000,4.000000,4.000000,4.000000,4.000000,4.000000,4.000000,100.000000,,,,,,,,,,,,,,,,,,,,,,,,,,,,,,,,,,,,,,,,,,,,,,,,,,,,,,,,,,,,,,,,,,,,,,,,,,,,,,,,,,,,,,,,,,,,,,,,,,,,,,,,,,,,,,,,,
1606526456.208106,122.000000,0.000000,4237.051270,3718.333252,4275.641113,4201.666504,4265.641113,4330.641113,4386.538574,4312.692383,4311.410156,4345.128418,4407.436035,4267.563965,4281.410156,4277.436035,3445.000000,2.000000,,,,0.000000,4.000000,4.000000,4.000000,4.000000,4.000000,4.000000,4.000000,4.000000,4.000000,4.000000,4.000000,4.000000,4.000000,4.000000,100.000000,,,,,,,,,,,,,,,,,,,,,,,,,,,,,,,,,,,,,,,,,,,,,,,,,,,,,,,,,,,,,,,,,,,,,,,,,,,,,,,,,,,,,,,,,,,,,,,,,,,,,,,,,,,,,,,,,
1606526456.216101,123.000000,0.000000,4237.051270,3728.076904,4273.077148,4213.846191,4272.051270,4307.948730,4374.230957,4319.230957,4325.641113,4349.230957,4416.666504,4267.563965,4298.589844,4272.307617,3502.000000,2.000000,,,,0.000000,4.000000,4.000000,4.000000,4.000000,4.000000,4.000000,4.000000,4.000000,4.000000,4.000000,4.000000,4.000000,4.000000,4.000000,100.000000,,,,,,,,,,,,,,,,,,,,,,,,,,,,,,,,,,,,,,,,,,,,,,,,,,,,,,,,,,,,,,,,,,,,,,,,,,,,,,,,,,,,,,,,,,,,,,,,,,,,,,,,,,,,,,,,,
1606526456.223997,124.000000,0.000000,4229.871582,3721.538574,4268.077148,4189.871582,4268.589844,4277.051270,4369.487305,4320.384766,4333.589844,4358.333496,4418.333496,4278.333496,4309.102539,4270.512695,3486.000000,2.000000,,,,0.000000,4.000000,4.000000,4.000000,4.000000,4.000000,4.000000,4.000000,4.000000,4.000000,4.000000,4.000000,4.000000,4.000000,4.000000,100.000000,31.000000,0.000000,0.223658,0.229187,-0.910889,-0.260254,-3.999939,3.999939,-3.999939,-36.337833,-115.892273,4.336614,,,,,,,,,,,,,,,,,,,,,,,,,,,,,,,,,,,,,,,,,,,,,,,,,,,,,,,,,,,,,,,,,,,,,,,,,,,,,,,,,,,,,,,,,,,,,,,,,,,,,
1606526456.231693,125.000000,0.000000,4231.153809,3716.538574,4267.820313,4176.025879,4260.769043,4275.769043,4392.820313,4329.871582,4303.333496,4407.563965,4416.922852,4282.307617,4311.410156,4271.794922,3211.000000,2.000000,,,,0.000000,4.000000,4.000000,4.000000,4.000000,4.000000,4.000000,4.000000,4.000000,4.000000,4.000000,4.000000,4.000000,4.000000,4.000000,100.000000,,,,,,,,,,,,,,,,,,,,,,,,,,,,,,,,,,,,,,,,,,,,,,,,,,,,,,,,,,,,,,,,,,,,,,,,,,,,,,,,,,,,,,,,,,,,,,,,,,,,,,,,,,,,,,,,,
1606526456.239389,126.000000,0.000000,4231.153809,3717.179443,4269.102539,4178.589844,4248.205078,4277.179688,4392.820313,4338.589844,4301.410156,4406.025879,4405.512695,4273.974121,4300.897461,4266.922852,3445.000000,2.000000,,,,0.000000,4.000000,4.000000,4.000000,4.000000,4.000000,4.000000,4.000000,4.000000,4.000000,4.000000,4.000000,4.000000,4.000000,4.000000,100.000000,,,,,,,,,,,,,,,,,,,,,,,,,,,,,,,,,,,,,,,,,,,,,,,,,,,,,,,,,,,,,,,,,,,,,,,,,,,,,,,,,,,,,,,,,,,,,,,,,,,,,,,,,,,,,,,,,
1606526456.246985,127.000000,0.000000,4219.871582,3712.692383,4260.641113,4159.487305,4253.077148,4256.410156,4379.615234,4337.563965,4355.897461,4370.897461,4398.846191,4276.410156,4275.000000,4264.487305,51.000000,2.000000,,,,0.000000,4.000000,4.000000,4.000000,4.000000,4.000000,4.000000,4.000000,4.000000,4.000000,4.000000,4.000000,4.000000,4.000000,4.000000,100.000000,,,,,,,,,,,,,,,,,,,,,,,,,,,,,,,,,,,,,,,,,,,,7.036787,2.052771,3.082674,2.620419,3.298982,13.133376,2.510092,3.621195,2.903175,6.046921,6.481292,2.174820,2.499527,3.333585,3.711864,9.462258,2.127900,2.448949,2.031431,4.860762,8.750748,1.831473,2.935474,6.885492,5.158175,8.456510,1.008747,2.285868,1.906260,2.745328,9.144246,3.083128,3.199471,4.834781,5.923183,10.078529,1.839655,3.805595,3.558165,3.573746,6.665242,2.557016,5.107568,3.648820,4.767435,9.059878,2.440745,3.896643,5.499100,6.603109,9.721760,3.015975,4.827445,4.134360,4.677954,6.170021,2.588560,4.287084,3.546581,3.605217,71.722954,11.735823,10.218094,3.435941,4.178003,8.208357,4.525558,4.420315,3.584795,4.422703
1606526456.254681,0.000000,0.000000,4236.410156,3715.128174,4266.794922,4160.641113,4283.205078,4259.102539,4386.666504,4352.948730,4386.922852,4398.974121,4418.717773,4303.333496,4251.025879,4290.512695,3360.000000,2.000000,,,,0.000000,4.000000,4.000000,4.000000,4.000000,4.000000,4.000000,4.000000,4.000000,4.000000,4.000000,4.000000,4.000000,4.000000,4.000000,100.000000,0.000000,0.000000,0.100110,0.290710,-0.897156,-0.317139,-3.999939,3.999939,-3.999939,-35.889221,-116.639961,3.588922,,,,,,,,,,,,,,,,,,,,,,,,,,,,,,,,,,,,,,,,,,,,,,,,,,,,,,,,,,,,,,,,,,,,,,,,,,,,,,,,,,,,,,,,,,,,,,,,,,,,,
1606526456.262377,1.000000,0.000000,4253.974121,3695.384521,4287.820313,4194.615234,4295.384766,4273.205078,4402.436035,4358.717773,4361.025879,4409.743652,4422.948730,4311.282227,4216.922852,4304.230957,3554.000000,2.000000,,,,0.000000,4.000000,4.000000,4.000000,4.000000,4.000000,4.000000,4.000000,4.000000,4.000000,4.000000,4.000000,4.000000,4.000000,4.000000,100.000000,,,,,,,,,,,,,,,,,,,,,,,,,,,,,,,,,,,,,,,,,,,,,,,,,,,,,,,,,,,,,,,,,,,,,,,,,,,,,,,,,,,,,,,,,,,,,,,,,,,,,,,,,,,,,,,,,
1606526456.270073,2.000000,0.000000,4227.948730,3659.743652,4278.974121,4182.436035,4277.179688,4274.743652,4397.051270,4318.846191,4311.666504,4348.974121,4383.846191,4281.025879,4152.692383,4272.307617,3227.000000,2.000000,,,,0.000000,4.000000,4.000000,4.000000,4.000000,4.000000,4.000000,4.000000,4.000000,4.000000,4.000000,4.000000,4.000000,4.000000,4.000000,100.000000,,,,,,,,,,,,,,,,,,,,,,,,,,,,,,,,,,,,,,,,,,,,,,,,,,,,,,,,,,,,,,,,,,,,,,,,,,,,,,,,,,,,,,,,,,,,,,,,,,,,,,,,,,,,,,,,,
1606526456.278068,3.000000,0.000000,4221.922852,3660.897461,4268.333496,4160.512695,4263.589844,4273.717773,4368.589844,4295.000000,4290.769043,4338.205078,4367.307617,4281.153809,4109.102539,4261.282227,3634.000000,2.000000,,,,0.000000,4.000000,4.000000,4.000000,4.000000,4.000000,4.000000,4.000000,4.000000,4.000000,4.000000,4.000000,4.000000,4.000000,4.000000,100.000000,,,,,,,,,,,,,,,,,,,,,,,,,,,,,,,,,,,,,,,,,,,,,,,,,,,,,,,,,,,,,,,,,,,,,,,,,,,,,,,,,,,,,,,,,,,,,,,,,,,,,,,,,,,,,,,,,
1606526456.285964,4.000000,0.000000,4240.128418,3687.435791,4291.410156,4193.717773,4269.487305,4287.179688,4363.077148,4316.538574,4316.666504,4386.666504,4382.948730,4307.820313,4127.692383,4290.897461,3585.000000,2.000000,,,,0.000000,4.000000,4.000000,4.000000,4.000000,4.000000,4.000000,4.000000,4.000000,4.000000,4.000000,4.000000,4.000000,4.000000,4.000000,100.000000,1.000000,0.000000,0.310525,0.206543,-0.860901,-0.346069,-3.999939,3.999939,-3.999939,-35.889221,-118.284889,3.588922,,,,,,,,,,,,,,,,,,,,,,,,,,,,,,,,,,,,,,,,,,,,,,,,,,,,,,,,,,,,,,,,,,,,,,,,,,,,,,,,,,,,,,,,,,,,,,,,,,,,,
1606526456.293860,5.000000,0.000000,4263.077148,3720.512939,4320.128418,4222.692383,4283.846191,4300.641113,4385.128418,4326.666504,4336.153809,4402.179688,4378.846191,4314.102539,4167.179688,4309.102539,2195.000000,2.000000,,,,0.000000,4.000000,4.000000,4.000000,4.000000,4.000000,4.000000,4.000000,4.000000,4.000000,4.000000,4.000000,4.000000,4.000000,4.000000,100.000000,,,,,,,,,,,,,,,,,,,,,,,,,,,,,,,,,,,,,,,,,,,,,,,,,,,,,,,,,,,,,,,,,,,,,,,,,,,,,,,,,,,,,,,,,,,,,,,,,,,,,,,,,,,,,,,,,
1606526456.301556,6.000000,0.000000,4259.871582,3741.281982,4291.153809,4196.025879,4276.538574,4275.769043,4358.333496,4305.769043,4317.948730,4378.589844,4360.000000,4294.871582,4163.077148,4293.077148,3414.000000,2.000000,,,,0.000000,4.000000,4.000000,4.000000,4.000000,4.000000,4.000000,4.000000,4.000000,4.000000,4.000000,4.000000,4.000000,4.000000,4.000000,100.000000,,,,,,,,,,,,,,,,,,,,,,,,,,,,,,,,,,,,,,,,,,,,,,,,,,,,,,,,,,,,,,,,,,,,,,,,,,,,,,,,,,,,,,,,,,,,,,,,,,,,,,,,,,,,,,,,,
1606526456.309351,7.000000,0.000000,4284.871582,3760.512939,4263.589844,4190.897461,4274.230957,4254.230957,4320.384766,4299.615234,4319.871582,4353.589844,4349.102539,4295.384766,4133.333496,4282.051270,3258.000000,2.000000,,,,0.000000,4.000000,4.000000,4.000000,4.000000,4.000000,4.000000,4.000000,4.000000,4.000000,4.000000,4.000000,4.000000,4.000000,4.000000,100.000000,,,,,,,,,,,,,,,,,,,,,,,,,,,,,,,,,,,,,,,,,,,,,,,,,,,,,,,,,,,,,,,,,,,,,,,,,,,,,,,,,,,,,,,,,,,,,,,,,,,,,,,,,,,,,,,,,
1606526456.317047,8.000000,0.000000,4305.641113,3777.820557,4262.692383,4225.256348,4295.769043,4243.205078,4323.589844,4301.025879,4336.922852,4358.589844,4329.487305,4294.487305,4111.282227,4280.897461,3287.000000,2.000000,,,,0.000000,4.000000,4.000000,4.000000,4.000000,4.000000,4.000000,4.000000,4.000000,4.000000,4.000000,4.000000,4.000000,4.000000,4.000000,100.000000,2.000000,0.000000,0.266343,0.225464,-0.861816,-0.368103,-3.999939,3.999939,-3.999939,-35.889221,-120.827042,3.588922,,,,,,,,,,,,,,,,,,,,,,,,,,,,,,,,,,,,,,,,,,,,,,,,,,,,,,,,,,,,,,,,,,,,,,,,,,,,,,,,,,,,,,,,,,,,,,,,,,,,,
1606526456.324743,9.000000,0.000000,4289.102539,3750.641113,4247.051270,4221.538574,4279.743652,4227.179688,4302.051270,4280.256348,4308.846191,4359.230957,4304.743652,4278.205078,4074.871826,4267.820313,3612.000000,2.000000,,,,0.000000,4.000000,4.000000,4.000000,4.000000,4.000000,4.000000,4.000000,4.000000,4.000000,4.000000,4.000000,4.000000,4.000000,4.000000,100.000000,,,,,,,,,,,,,,,,,,,,,,,,,,,,,,,,,,,,,,,,,,,,,,,,,,,,,,,,,,,,,,,,,,,,,,,,,,,,,,,,,,,,,,,,,,,,,,,,,,,,,,,,,,,,,,,,,
1606526456.332639,10.000000,0.000000,4259.743652,3714.615479,4225.000000,4208.974121,4252.436035,4215.384766,4280.384766,4260.512695,4271.410156,4322.179688,4297.179688,4256.410156,4027.051270,4254.358887,3471.000000,2.000000,,,,0.000000,4.000000,4.000000,4.000000,4.000000,4.000000,4.000000,4.000000,4.000000,4.000000,4.000000,4.000000,4.000000,4.000000,4.000000,100.000000,,,,,,,,,,,,,,,,,,,,,,,,,,,,,,,,,,,,,,,,,,,,,,,,,,,,,,,,,,,,,,,,,,,,,,,,,,,,,,,,,,,,,,,,,,,,,,,,,,,,,,,,,,,,,,,,,
1606526456.340635,11.000000,0.000000,4251.794922,3695.897461,4219.871582,4212.948730,4246.538574,4217.179688,4294.358887,4254.358887,4250.641113,4274.615234,4274.615234,4237.948730,3979.743652,4235.384766,3481.000000,2.000000,,,,0.000000,4.000000,4.000000,4.000000,4.000000,4.000000,4.000000,4.000000,4.000000,4.000000,4.000000,4.000000,4.000000,4.000000,4.000000,100.000000,,,,,,,,,,,,,,,,,,,,,,,,,,,,,,,,,,,,,,,,,,,,,,,,,,,,,,,,,,,,,,,,,,,,,,,,,,,,,,,,,,,,,,,,,,,,,,,,,,,,,,,,,,,,,,,,,
1606526456.348530,12.000000,0.000000,4239.615234,3679.487061,4222.563965,4219.358887,4252.820313,4208.461426,4282.563965,4261.538574,4251.025879,4273.589844,4267.179688,4239.871582,3959.230713,4235.384766,3449.000000,2.000000,,,,0.000000,4.000000,4.000000,4.000000,4.000000,4.000000,4.000000,4.000000,4.000000,4.000000,4.000000,4.000000,4.000000,4.000000,4.000000,100.000000,3.000000,0.000000,0.268926,0.229126,-0.855774,-0.377930,-3.999939,3.999939,-3.999939,-36.786449,-118.284889,5.831998,,,,,,,,,,,,,,,,,,,,,,,,,,,,,,,,,,,,,,,,,,,,,,,,,,,,,,,,,,,,,,,,,,,,,,,,,,,,,,,,,,,,,,,,,,,,,,,,,,,,,
1606526456.356426,13.000000,0.000000,4239.230957,3669.358887,4230.512695,4215.641113,4264.615234,4223.205078,4256.025879,4273.333496,4261.410156,4292.563965,4297.948730,4260.769043,3959.102539,4258.333496,3183.000000,2.000000,,,,0.000000,4.000000,4.000000,4.000000,4.000000,4.000000,4.000000,4.000000,4.000000,4.000000,4.000000,4.000000,4.000000,4.000000,4.000000,100.000000,,,,,,,,,,,,,,,,,,,,,,,,,,,,,,,,,,,,,,,,,,,,,,,,,,,,,,,,,,,,,,,,,,,,,,,,,,,,,,,,,,,,,,,,,,,,,,,,,,,,,,,,,,,,,,,,,
1606526456.364322,14.000000,0.000000,4260.000000,3696.410156,4247.692383,4224.615234,4291.922852,4254.487305,4296.794922,4285.641113,4275.128418,4301.922852,4318.077148,4266.538574,3970.512939,4275.000000,3471.000000,2.000000,,,,0.000000,4.000000,4.000000,4.000000,4.000000,4.000000,4.000000,4.000000,4.000000,4.000000,4.000000,4.000000,4.000000,4.000000,4.000000,100.000000,,,,,,,,,,,,,,,,,,,,,,,,,,,,,,,,,,,,,,,,,,,,,,,,,,,,,,,,,,,,,,,,,,,,,,,,,,,,,,,,,,,,,,,,,,,,,,,,,,,,,,,,,,,,,,,,,
1606526456.372118,15.000000,0.000000,4256.538574,3693.205078,4250.641113,4233.077148,4292.692383,4264.615234,4342.948730,4283.589844,4272.051270,4293.974121,4296.025879,4259.743652,3957.948730,4269.358887,3481.000000,2.000000,,,,0.000000,4.000000,4.000000,4.000000,4.000000,4.000000,4.000000,4.000000,4.000000,4.000000,4.000000,4.000000,4.000000,4.000000,4.000000,100.000000,,,,,,,,,,,,,,,,,,,,,,,,,,,,,,,,,,,,,,,,,,,,4.596484,2.109653,2.714633,2.209497,2.810515,6.474188,2.782924,2.667639,2.904798,5.519534,5.042743,1.973136,2.328486,2.901162,3.052287,7.055602,2.275792,2.269938,2.109318,4.117537,7.634353,1.511684,2.769768,6.088990,4.680868,5.541329,1.029208,2.220604,1.852955,2.540996,7.196603,2.991762,3.388175,4.083639,5.007931,7.627315,2.207243,4.103539,3.032260,3.075975,4.678493,2.680484,5.089952,3.030074,4.232274,6.533420,3.274310,3.602715,4.914356,5.759157,7.238639,3.059951,3.923715,3.536067,4.119093,4.639372,2.697385,4.036063,3.055250,3.254428,22.967781,4.702211,6.021811,2.632866,3.406140,5.882790,4.066276,3.959727,3.028401,3.852864
1606526456.379813,16.000000,0.000000,4249.615234,3663.333252,4257.563965,4246.666504,4285.897461,4252.436035,4322.051270,4276.282227,4268.974121,4290.769043,4300.641113,4274.230957,3947.051270,4280.641113,0.000000,2.000000,,,,0.000000,4.000000,4.000000,4.000000,4.000000,4.000000,4.000000,4.000000,4.000000,4.000000,4.000000,4.000000,4.000000,4.000000,4.000000,100.000000,4.000000,0.000000,0.344943,0.198669,-0.854614,-0.333435,-3.999939,3.999939,-3.999939,-35.291065,-119.182114,5.682460,,,,,,,,,,,,,,,,,,,,,,,,,,,,,,,,,,,,,,,,,,,,,,,,,,,,,,,,,,,,,,,,,,,,,,,,,,,,,,,,,,,,,,,,,,,,,,,,,,,,,
1606526456.387509,17.000000,0.000000,4268.846191,3677.307617,4274.615234,4275.256348,4302.307617,4254.358887,4303.846191,4281.666504,4289.615234,4308.717773,4340.769043,4296.538574,3972.435791,4315.769043,0.000000,2.000000,,,,0.000000,4.000000,4.000000,4.000000,4.000000,4.000000,4.000000,4.000000,4.000000,4.000000,4.000000,4.000000,4.000000,4.000000,4.000000,100.000000,,,,,,,,,,,,,,,,,,,,,,,,,,,,,,,,,,,,,,,,,,,,,,,,,,,,,,,,,,,,,,,,,,,,,,,,,,,,,,,,,,,,,,,,,,,,,,,,,,,,,,,,,,,,,,,,,
1606526456.395205,18.000000,0.000000,4269.358887,3680.641113,4259.487305,4262.307617,4287.948730,4255.897461,4304.871582,4269.230957,4286.794922,4310.897461,4327.179688,4282.436035,3967.307617,4304.358887,0.000000,2.000000,,,,0.000000,4.000000,4.000000,4.000000,4.000000,4.000000,4.000000,4.000000,4.000000,4.000000,4.000000,4.000000,4.000000,4.000000,4.000000,100.000000,,,,,,,,,,,,,,,,,,,,,,,,,,,,,,,,,,,,,,,,,,,,,,,,,,,,,,,,,,,,,,,,,,,,,,,,,,,,,,,,,,,,,,,,,,,,,,,,,,,,,,,,,,,,,,,,,
1606526456.403001,19.000000,0.000000,4257.692383,3678.846191,4242.820313,4242.948730,4273.077148,4246.922852,4284.102539,4250.641113,4267.820313,4308.077148,4304.102539,4266.410156,3944.615479,4283.461426,0.000000,2.000000,,,,0.000000,4.000000,4.000000,4.000000,4.000000,4.000000,4.000000,4.000000,4.000000,4.000000,4.000000,4.000000,4.000000,4.000000,4.000000,100.000000,,,,,,,,,,,,,,,,,,,,,,,,,,,,,,,,,,,,,,,,,,,,,,,,,,,,,,,,,,,,,,,,,,,,,,,,,,,,,,,,,,,,,,,,,,,,,,,,,,,,,,,,,,,,,,,,,
1606526456.410897,20.000000,0.000000,4280.384766,3705.897461,4270.769043,4276.282227,4313.461426,4258.717773,4290.512695,4265.384766,4288.333496,4314.743652,4330.641113,4289.615234,3963.718018,4313.974121,0.000000,2.000000,,,,0.000000,4.000000,4.000000,4.000000,4.000000,4.000000,4.000000,4.000000,4.000000,4.000000,4.000000,4.000000,4.000000,4.000000,4.000000,100.000000,5.000000,0.000000,0.483611,0.680115,-0.514160,-0.197998,-3.999939,3.999939,-3.999939,-34.692913,-119.780273,7.028306,,,,,,,,,,,,,,,,,,,,,,,,,,,,,,,,,,,,,,,,,,,,,,,,,,,,,,,,,,,,,,,,,,,,,,,,,,,,,,,,,,,,,,,,,,,,,,,,,,,,,
1606526456.418593,21.000000,0.000000,4276.410156,3681.538574,4282.692383,4285.000000,4319.230957,4255.384766,4297.692383,4267.051270,4288.846191,4315.000000,4328.846191,4293.589844,3966.410156,4326.282227,0.000000,2.000000,,,,0.000000,4.000000,4.000000,4.000000,4.000000,4.000000,4.000000,4.000000,4.000000,4.000000,4.000000,4.000000,4.000000,4.000000,4.000000,100.000000,,,,,,,,,,,,,,,,,,,,,,,,,,,,,,,,,,,,,,,,,,,,,,,,,,,,,,,,,,,,,,,,,,,,,,,,,,,,,,,,,,,,,,,,,,,,,,,,,,,,,,,,,,,,,,,,,
1606526456.426488,22.000000,0.000000,4260.256348,3635.000000,4268.589844,4254.871582,4271.666504,4233.077148,4262.820313,4250.512695,4248.077148,4312.307617,4295.641113,4285.000000,3926.923096,4298.077148,0.000000,2.000000,,,,0.000000,4.000000,4.000000,4.000000,4.000000,4.000000,4.000000,4.000000,4.000000,4.000000,4.000000,4.000000,4.000000,4.000000,4.000000,100.000000,,,,,,,,,,,,,,,,,,,,,,,,,,,,,,,,,,,,,,,,,,,,,,,,,,,,,,,,,,,,,,,,,,,,,,,,,,,,,,,,,,,,,,,,,,,,,,,,,,,,,,,,,,,,,,,,,
1606526456.434284,23.000000,0.000000,4250.641113,3644.102539,4255.897461,4257.179688,4263.717773,4230.128418,4256.025879,4249.230957,4247.179688,4290.256348,4294.871582,4279.487305,3899.615479,4281.410156,0.000000,2.000000,,,,0.000000,4.000000,4.000000,4.000000,4.000000,4.000000,4.000000,4.000000,4.000000,4.000000,4.000000,4.000000,4.000000,4.000000,4.000000,100.000000,,,,,,,,,,,,,,,,,,,,,,,,,,,,,,,,,,,,,,,,,,,,,,,,,,,,,,,,,,,,,,,,,,,,,,,,,,,,,,,,,,,,,,,,,,,,,,,,,,,,,,,,,,,,,,,,,
1606526456.441980,24.000000,0.000000,4247.436035,3639.358887,4251.922852,4260.512695,4276.410156,4250.128418,4290.384766,4240.128418,4255.641113,4251.922852,4296.282227,4266.538574,3885.641113,4271.922852,0.000000,2.000000,,,,0.000000,4.000000,4.000000,4.000000,4.000000,4.000000,4.000000,4.000000,4.000000,4.000000,4.000000,4.000000,4.000000,4.000000,4.000000,100.000000,6.000000,0.000000,0.462595,0.679504,-0.531128,-0.205383,-3.999939,3.999939,-3.999939,-37.085526,-120.079346,5.831998,,,,,,,,,,,,,,,,,,,,,,,,,,,,,,,,,,,,,,,,,,,,,,,,,,,,,,,,,,,,,,,,,,,,,,,,,,,,,,,,,,,,,,,,,,,,,,,,,,,,,
1606526456.449676,25.000000,0.000000,4265.769043,3643.461426,4271.794922,4268.974121,4278.461426,4251.153809,4296.410156,4256.282227,4266.794922,4285.769043,4313.077148,4277.179688,3903.846191,4292.948730,0.000000,2.000000,,,,0.000000,4.000000,4.000000,4.000000,4.000000,4.000000,4.000000,4.000000,4.000000,4.000000,4.000000,4.000000,4.000000,4.000000,4.000000,100.000000,,,,,,,,,,,,,,,,,,,,,,,,,,,,,,,,,,,,,,,,,,,,,,,,,,,,,,,,,,,,,,,,,,,,,,,,,,,,,,,,,,,,,,,,,,,,,,,,,,,,,,,,,,,,,,,,,
1606526456.457372,26.000000,0.000000,4319.487305,3704.102539,4312.051270,4317.820313,4286.410156,4255.384766,4293.333496,4294.487305,4301.025879,4343.589844,4355.512695,4323.205078,3955.128174,4354.615234,0.000000,2.000000,,,,0.000000,4.000000,4.000000,4.000000,4.000000,4.000000,4.000000,4.000000,4.000000,4.000000,4.000000,4.000000,4.000000,4.000000,4.000000,100.000000,,,,,,,,,,,,,,,,,,,,,,,,,,,,,,,,,,,,,,,,,,,,,,,,,,,,,,,,,,,,,,,,,,,,,,,,,,,,,,,,,,,,,,,,,,,,,,,,,,,,,,,,,,,,,,,,,
1606526456.465368,27.000000,0.000000,4316.538574,3728.333252,4306.410156,4322.051270,4285.000000,4242.692383,4302.948730,4259.871582,4289.743652,4319.230957,4352.307617,4329.615234,3963.461426,4380.128418,0.000000,2.000000,,,,0.000000,4.000000,4.000000,4.000000,4.000000,4.000000,4.000000,4.000000,4.000000,4.000000,4.000000,4.000000,4.000000,4.000000,4.000000,100.000000,,,,,,,,,,,,,,,,,,,,,,,,,,,,,,,,,,,,,,,,,,,,,,,,,,,,,,,,,,,,,,,,,,,,,,,,,,,,,,,,,,,,,,,,,,,,,,,,,,,,,,,,,,,,,,,,,
1606526456.473263,28.000000,0.000000,4289.615234,3706.666748,4275.256348,4272.563965,4255.769043,4221.538574,4282.051270,4184.487305,4217.436035,4254.487305,4318.333496,4308.077148,3926.794922,4363.974121,0.000000,2.000000,,,,0.000000,4.000000,4.000000,4.000000,4.000000,4.000000,4.000000,4.000000,4.000000,4.000000,4.000000,4.000000,4.000000,4.000000,4.000000,100.000000,7.000000,0.000000,0.457736,0.678467,-0.535339,-0.208740,-3.999939,3.999939,-3.999939,-36.487373,-120.228882,7.177844,,,,,,,,,,,,,,,,,,,,,,,,,,,,,,,,,,,,,,,,,,,,,,,,,,,,,,,,,,,,,,,,,,,,,,,,,,,,,,,,,,,,,,,,,,,,,,,,,,,,,
1606526456.480959,29.000000,0.000000,4303.589844,3742.948730,4275.512695,4282.563965,4250.512695,4227.820313,4277.820313,4190.641113,4202.179688,4248.589844,4327.948730,4307.307617,3937.948730,4376.666504,0.000000,2.000000,,,,0.000000,4.000000,4.000000,4.000000,4.000000,4.000000,4.000000,4.000000,4.000000,4.000000,4.000000,4.000000,4.000000,4.000000,4.000000,100.000000,,,,,,,,,,,,,,,,,,,,,,,,,,,,,,,,,,,,,,,,,,,,,,,,,,,,,,,,,,,,,,,,,,,,,,,,,,,,,,,,,,,,,,,,,,,,,,,,,,,,,,,,,,,,,,,,,
1606526456.488655,30.000000,0.000000,4320.897461,3776.025635,4285.641113,4312.563965,4266.794922,4241.922852,4286.153809,4230.384766,4242.563965,4275.384766,4342.307617,4302.692383,3971.923096,4391.922852,0.000000,2.000000,,,,0.000000,4.000000,4.000000,4.000000,4.000000,4.000000,4.000000,4.000000,4.000000,4.000000,4.000000,4.000000,4.000000,4.000000,4.000000,100.000000,,,,,,,,,,,,,,,,,,,,,,,,,,,,,,,,,,,,,,,,,,,,,,,,,,,,,,,,,,,,,,,,,,,,,,,,,,,,,,,,,,,,,,,,,,,,,,,,,,,,,,,,,,,,,,,,,
1606526456.496451,31.000000,0.000000,4308.846191,3748.846191,4280.128418,4305.897461,4276.410156,4226.794922,4265.384766,4234.102539,4260.000000,4283.205078,4340.512695,4292.436035,3973.076904,4382.563965,0.000000,2.000000,,,,0.000000,4.000000,4.000000,4.000000,4.000000,4.000000,4.000000,4.000000,4.000000,4.000000,4.000000,4.000000,4.000000,4.000000,4.000000,100.000000,,,,,,,,,,,,,,,,,,,,,,,,,,,,,,,,,,,,,,,,,,,,3.312116,2.253677,2.303069,2.010661,2.416077,6.231483,3.339128,2.062277,3.042034,5.108087,3.661018,1.742118,2.139720,2.702411,2.552167,5.136760,2.546193,2.064144,2.357763,3.590938,6.066719,1.181804,2.548382,5.393439,4.196035,3.620402,1.178212,2.106474,1.853038,2.352004,5.696033,2.891864,3.661200,3.687368,4.214752,5.339079,2.513532,4.324992,2.762733,2.681442,3.052642,2.769853,4.858728,2.785347,3.714476,4.657518,4.173161,3.393712,4.766510,4.928706,5.077008,3.054227,3.169467,3.240349,3.650366,3.411195,2.669616,3.638477,2.767439,2.984470,7.770142,2.524390,3.933535,2.388830,2.816610,4.234716,3.684822,3.471310,2.732055,3.330258
1606526456.504147,32.000000,0.000000,4286.153809,3717.948730,4260.256348,4279.487305,4274.230957,4221.794922,4252.948730,4227.051270,4247.820313,4256.922852,4323.974121,4282.948730,3948.205078,4357.436035,0.000000,2.000000,,,,0.000000,4.000000,4.000000,4.000000,4.000000,4.000000,4.000000,4.000000,4.000000,4.000000,4.000000,4.000000,4.000000,4.000000,4.000000,100.000000,8.000000,0.000000,0.454544,0.677734,-0.537903,-0.211487,-3.999939,3.999939,-3.999939,-36.487373,-121.126114,6.878767,,,,,,,,,,,,,,,,,,,,,,,,,,,,,,,,,,,,,,,,,,,,,,,,,,,,,,,,,,,,,,,,,,,,,,,,,,,,,,,,,,,,,,,,,,,,,,,,,,,,,
1606526456.511843,33.000000,0.000000,4279.487305,3723.589844,4253.717773,4259.230957,4272.692383,4242.051270,4281.153809,4231.410156,4242.563965,4256.410156,4311.025879,4273.717773,3935.769287,4341.282227,0.000000,2.000000,,,,0.000000,4.000000,4.000000,4.000000,4.000000,4.000000,4.000000,4.000000,4.000000,4.000000,4.000000,4.000000,4.000000,4.000000,4.000000,100.000000,,,,,,,,,,,,,,,,,,,,,,,,,,,,,,,,,,,,,,,,,,,,,,,,,,,,,,,,,,,,,,,,,,,,,,,,,,,,,,,,,,,,,,,,,,,,,,,,,,,,,,,,,,,,,,,,,
1606526456.519539,34.000000,0.000000,4288.589844,3738.333252,4271.538574,4275.256348,4277.051270,4249.871582,4299.743652,4244.743652,4264.358887,4299.358887,4321.153809,4282.692383,3945.000000,4350.769043,0.000000,2.000000,,,,0.000000,4.000000,4.000000,4.000000,4.000000,4.000000,4.000000,4.000000,4.000000,4.000000,4.000000,4.000000,4.000000,4.000000,4.000000,100.000000,,,,,,,,,,,,,,,,,,,,,,,,,,,,,,,,,,,,,,,,,,,,,,,,,,,,,,,,,,,,,,,,,,,,,,,,,,,,,,,,,,,,,,,,,,,,,,,,,,,,,,,,,,,,,,,,,
1606526456.527335,35.000000,0.000000,4290.769043,3717.948730,4277.436035,4297.948730,4268.077148,4241.538574,4286.794922,4252.179688,4263.846191,4293.974121,4320.000000,4292.692383,3935.641113,4348.974121,0.000000,2.000000,,,,0.000000,4.000000,4.000000,4.000000,4.000000,4.000000,4.000000,4.000000,4.000000,4.000000,4.000000,4.000000,4.000000,4.000000,4.000000,100.000000,,,,,,,,,,,,,,,,,,,,,,,,,,,,,,,,,,,,,,,,,,,,,,,,,,,,,,,,,,,,,,,,,,,,,,,,,,,,,,,,,,,,,,,,,,,,,,,,,,,,,,,,,,,,,,,,,
1606526456.535230,36.000000,0.000000,4277.051270,3702.692383,4259.615234,4283.077148,4261.153809,4244.871582,4292.051270,4247.436035,4236.538574,4266.025879,4310.128418,4281.538574,3918.974365,4336.282227,0.000000,2.000000,,,,0.000000,4.000000,4.000000,4.000000,4.000000,4.000000,4.000000,4.000000,4.000000,4.000000,4.000000,4.000000,4.000000,4.000000,4.000000,100.000000,9.000000,0.000000,0.455598,0.676147,-0.538574,-0.212585,-3.999939,3.999939,-3.999939,-35.739681,-121.126114,7.626459,,,,,,,,,,,,,,,,,,,,,,,,,,,,,,,,,,,,,,,,,,,,,,,,,,,,,,,,,,,,,,,,,,,,,,,,,,,,,,,,,,,,,,,,,,,,,,,,,,,,,
1606526456.543126,37.000000,0.000000,4292.563965,3723.718018,4260.769043,4266.922852,4263.846191,4251.153809,4290.512695,4246.025879,4243.205078,4284.743652,4319.615234,4287.948730,3913.076904,4342.948730,0.000000,2.000000,,,,0.000000,4.000000,4.000000,4.000000,4.000000,4.000000,4.000000,4.000000,4.000000,4.000000,4.000000,4.000000,4.000000,4.000000,4.000000,100.000000,,,,,,,,,,,,,,,,,,,,,,,,,,,,,,,,,,,,,,,,,,,,,,,,,,,,,,,,,,,,,,,,,,,,,,,,,,,,,,,,,,,,,,,,,,,,,,,,,,,,,,,,,,,,,,,,,
1606526456.551022,38.000000,0.000000,4297.563965,3736.538574,4268.846191,4287.179688,4262.948730,4231.794922,4259.871582,4250.384766,4272.436035,4291.153809,4327.948730,4296.153809,3912.692383,4353.974121,0.000000,2.000000,,,,0.000000,4.000000,4.000000,4.000000,4.000000,4.000000,4.000000,4.000000,4.000000,4.000000,4.000000,4.000000,4.000000,4.000000,4.000000,100.000000,,,,,,,,,,,,,,,,,,,,,,,,,,,,,,,,,,,,,,,,,,,,,,,,,,,,,,,,,,,,,,,,,,,,,,,,,,,,,,,,,,,,,,,,,,,,,,,,,,,,,,,,,,,,,,,,,
1606526456.559017,39.000000,0.000000,4280.128418,3705.641113,4261.794922,4288.589844,4251.153809,4227.179688,4256.025879,4249.743652,4263.461426,4247.948730,4309.358887,4279.615234,3906.281982,4345.512695,0.000000,2.000000,,,,0.000000,4.000000,4.000000,4.000000,4.000000,4.000000,4.000000,4.000000,4.000000,4.000000,4.000000,4.000000,4.000000,4.000000,4.000000,100.000000,,,,,,,,,,,,,,,,,,,,,,,,,,,,,,,,,,,,,,,,,,,,,,,,,,,,,,,,,,,,,,,,,,,,,,,,,,,,,,,,,,,,,,,,,,,,,,,,,,,,,,,,,,,,,,,,,
1606526456.566913,40.000000,0.000000,4269.871582,3703.461426,4255.256348,4275.384766,4244.871582,4238.205078,4278.846191,4247.948730,4239.743652,4245.897461,4305.769043,4268.333496,3901.281982,4338.205078,0.000000,2.000000,,,,0.000000,4.000000,4.000000,4.000000,4.000000,4.000000,4.000000,4.000000,4.000000,4.000000,4.000000,4.000000,4.000000,4.000000,4.000000,100.000000,10.000000,0.000000,0.464466,0.673889,-0.534607,-0.210571,-3.999939,3.999939,-3.999939,-35.440605,-120.527962,7.028306,,,,,,,,,,,,,,,,,,,,,,,,,,,,,,,,,,,,,,,,,,,,,,,,,,,,,,,,,,,,,,,,,,,,,,,,,,,,,,,,,,,,,,,,,,,,,,,,,,,,,
1606526456.574609,41.000000,0.000000,4298.717773,3745.128174,4273.846191,4285.000000,4258.461426,4252.820313,4293.077148,4256.282227,4256.922852,4290.897461,4317.692383,4290.641113,3906.153809,4349.871582,0.000000,2.000000,,,,0.000000,4.000000,4.000000,4.000000,4.000000,4.000000,4.000000,4.000000,4.000000,4.000000,4.000000,4.000000,4.000000,4.000000,4.000000,100.000000,,,,,,,,,,,,,,,,,,,,,,,,,,,,,,,,,,,,,,,,,,,,,,,,,,,,,,,,,,,,,,,,,,,,,,,,,,,,,,,,,,,,,,,,,,,,,,,,,,,,,,,,,,,,,,,,,
1606526456.582305,42.000000,0.000000,4301.410156,3737.564209,4278.846191,4291.922852,4277.820313,4243.205078,4292.948730,4262.307617,4282.051270,4304.102539,4313.846191,4293.077148,3906.923096,4352.179688,0.000000,2.000000,,,,0.000000,4.000000,4.000000,4.000000,4.000000,4.000000,4.000000,4.000000,4.000000,4.000000,4.000000,4.000000,4.000000,4.000000,4.000000,100.000000,,,,,,,,,,,,,,,,,,,,,,,,,,,,,,,,,,,,,,,,,,,,,,,,,,,,,,,,,,,,,,,,,,,,,,,,,,,,,,,,,,,,,,,,,,,,,,,,,,,,,,,,,,,,,,,,,
1606526456.590101,43.000000,0.000000,4285.256348,3705.512939,4264.487305,4286.153809,4267.436035,4231.794922,4272.307617,4255.000000,4260.128418,4277.948730,4301.538574,4275.769043,3898.205078,4331.794922,0.000000,2.000000,,,,0.000000,4.000000,4.000000,4.000000,4.000000,4.000000,4.000000,4.000000,4.000000,4.000000,4.000000,4.000000,4.000000,4.000000,4.000000,100.000000,,,,,,,,,,,,,,,,,,,,,,,,,,,,,,,,,,,,,,,,,,,,,,,,,,,,,,,,,,,,,,,,,,,,,,,,,,,,,,,,,,,,,,,,,,,,,,,,,,,,,,,,,,,,,,,,,
1606526456.597796,44.000000,0.000000,4288.077148,3746.281982,4269.615234,4296.153809,4266.153809,4240.769043,4260.897461,4250.128418,4251.794922,4285.384766,4317.179688,4283.461426,3910.641113,4341.025879,0.000000,2.000000,,,,0.000000,4.000000,4.000000,4.000000,4.000000,4.000000,4.000000,4.000000,4.000000,4.000000,4.000000,4.000000,4.000000,4.000000,4.000000,100.000000,11.000000,0.000000,0.476152,0.671814,-0.528259,-0.207092,-3.999939,3.999939,-3.999939,-36.935989,-120.228882,6.878767,,,,,,,,,,,,,,,,,,,,,,,,,,,,,,,,,,,,,,,,,,,,,,,,,,,,,,,,,,,,,,,,,,,,,,,,,,,,,,,,,,,,,,,,,,,,,,,,,,,,,
1606526456.605492,45.000000,0.000000,4306.666504,3778.974365,4283.846191,4296.025879,4285.384766,4259.615234,4273.333496,4247.563965,4271.025879,4291.538574,4336.794922,4305.897461,3926.666748,4371.666504,0.000000,2.000000,,,,0.000000,4.000000,4.000000,4.000000,4.000000,4.000000,4.000000,4.000000,4.000000,4.000000,4.000000,4.000000,4.000000,4.000000,4.000000,100.000000,,,,,,,,,,,,,,,,,,,,,,,,,,,,,,,,,,,,,,,,,,,,,,,,,,,,,,,,,,,,,,,,,,,,,,,,,,,,,,,,,,,,,,,,,,,,,,,,,,,,,,,,,,,,,,,,,
1606526456.613388,46.000000,0.000000,4304.871582,3758.076904,4280.000000,4293.333496,4286.922852,4254.230957,4278.717773,4244.358887,4269.615234,4266.666504,4338.077148,4307.692383,3926.025635,4374.102539,0.000000,2.000000,,,,0.000000,4.000000,4.000000,4.000000,4.000000,4.000000,4.000000,4.000000,4.000000,4.000000,4.000000,4.000000,4.000000,4.000000,4.000000,100.000000,,,,,,,,,,,,,,,,,,,,,,,,,,,,,,,,,,,,,,,,,,,,,,,,,,,,,,,,,,,,,,,,,,,,,,,,,,,,,,,,,,,,,,,,,,,,,,,,,,,,,,,,,,,,,,,,,
1606526456.621284,47.000000,0.000000,4291.666504,3759.230713,4271.922852,4308.846191,4277.179688,4250.256348,4272.692383,4230.641113,4252.051270,4271.282227,4335.769043,4290.769043,3919.230713,4358.333496,0.000000,2.000000,,,,0.000000,4.000000,4.000000,4.000000,4.000000,4.000000,4.000000,4.000000,4.000000,4.000000,4.000000,4.000000,4.000000,4.000000,4.000000,100.000000,,,,,,,,,,,,,,,,,,,,,,,,,,,,,,,,,,,,,,,,,,,,2.800614,2.404844,1.990154,2.032137,2.124795,13.532581,4.241149,2.221546,3.297493,4.819463,2.571038,1.647097,2.015774,2.745425,2.221156,3.956076,2.816880,1.872004,2.690479,3.257537,4.456475,0.948592,2.295047,5.028037,3.750499,2.717263,1.498930,1.965384,1.938503,2.183958,5.597022,2.837705,4.000285,3.748075,3.606195,3.625578,2.666112,4.358168,2.743962,2.394002,1.934137,2.901188,4.493469,2.993978,3.299901,3.656873,4.925108,3.341268,5.050615,4.265801,4.366906,3.049512,2.699212,3.281620,3.242379,2.506132,2.573342,3.217601,2.731170,2.783088,8.884724,2.509809,3.526236,2.514512,2.375109,2.880126,3.490079,3.060297,2.718709,2.879135
1606526456.629180,48.000000,0.000000,4273.205078,3763.974365,4262.563965,4296.666504,4274.743652,4247.179688,4259.102539,4209.615234,4248.333496,4286.153809,4317.179688,4266.153809,3903.974365,4338.717773,0.000000,2.000000,,,,0.000000,4.000000,4.000000,4.000000,4.000000,4.000000,4.000000,4.000000,4.000000,4.000000,4.000000,4.000000,4.000000,4.000000,4.000000,100.000000,12.000000,0.000000,0.486692,0.669922,-0.522400,-0.203552,-3.999939,3.999939,-3.999939,-36.487373,-120.677498,7.925536,,,,,,,,,,,,,,,,,,,,,,,,,,,,,,,,,,,,,,,,,,,,,,,,,,,,,,,,,,,,,,,,,,,,,,,,,,,,,,,,,,,,,,,,,,,,,,,,,,,,,
1606526456.636875,49.000000,0.000000,4256.282227,3742.820557,4243.461426,4263.717773,4258.333496,4229.743652,4232.692383,4203.077148,4242.307617,4257.307617,4278.846191,4248.589844,3876.666748,4305.000000,0.000000,2.000000,,,,0.000000,4.000000,4.000000,4.000000,4.000000,4.000000,4.000000,4.000000,4.000000,4.000000,4.000000,4.000000,4.000000,4.000000,4.000000,100.000000,,,,,,,,,,,,,,,,,,,,,,,,,,,,,,,,,,,,,,,,,,,,,,,,,,,,,,,,,,,,,,,,,,,,,,,,,,,,,,,,,,,,,,,,,,,,,,,,,,,,,,,,,,,,,,,,,
1606526456.644571,50.000000,0.000000,4267.179688,3751.281982,4243.717773,4269.871582,4246.922852,4238.846191,4247.692383,4217.820313,4236.282227,4251.410156,4272.820313,4258.589844,3877.051270,4294.487305,0.000000,2.000000,,,,0.000000,4.000000,4.000000,4.000000,4.000000,4.000000,4.000000,4.000000,4.000000,4.000000,4.000000,4.000000,4.000000,4.000000,4.000000,100.000000,,,,,,,,,,,,,,,,,,,,,,,,,,,,,,,,,,,,,,,,,,,,,,,,,,,,,,,,,,,,,,,,,,,,,,,,,,,,,,,,,,,,,,,,,,,,,,,,,,,,,,,,,,,,,,,,,
1606526456.652367,51.000000,0.000000,4275.384766,3769.358887,4258.461426,4285.000000,4264.230957,4257.820313,4283.974121,4229.743652,4247.436035,4287.563965,4301.410156,4271.282227,3901.666748,4321.922852,0.000000,2.000000,,,,0.000000,4.000000,4.000000,4.000000,4.000000,4.000000,4.000000,4.000000,4.000000,4.000000,4.000000,4.000000,4.000000,4.000000,4.000000,100.000000,,,,,,,,,,,,,,,,,,,,,,,,,,,,,,,,,,,,,,,,,,,,,,,,,,,,,,,,,,,,,,,,,,,,,,,,,,,,,,,,,,,,,,,,,,,,,,,,,,,,,,,,,,,,,,,,,
1606526456.660063,52.000000,0.000000,4287.051270,3770.769287,4266.666504,4283.461426,4276.538574,4249.230957,4266.538574,4229.743652,4256.538574,4285.384766,4311.153809,4272.051270,3910.128174,4341.025879,0.000000,2.000000,,,,0.000000,4.000000,4.000000,4.000000,4.000000,4.000000,4.000000,4.000000,4.000000,4.000000,4.000000,4.000000,4.000000,4.000000,4.000000,100.000000,13.000000,0.000000,0.498353,0.667542,-0.515991,-0.199463,-3.999939,3.999939,-3.999939,-37.085526,-121.574730,6.280613,,,,,,,,,,,,,,,,,,,,,,,,,,,,,,,,,,,,,,,,,,,,,,,,,,,,,,,,,,,,,,,,,,,,,,,,,,,,,,,,,,,,,,,,,,,,,,,,,,,,,
1606526456.667759,53.000000,0.000000,4294.743652,3786.153809,4271.282227,4294.487305,4272.563965,4246.025879,4257.179688,4240.000000,4268.846191,4276.922852,4309.358887,4274.743652,3905.256348,4351.282227,0.000000,2.000000,,,,0.000000,4.000000,4.000000,4.000000,4.000000,4.000000,4.000000,4.000000,4.000000,4.000000,4.000000,4.000000,4.000000,4.000000,4.000000,100.000000,,,,,,,,,,,,,,,,,,,,,,,,,,,,,,,,,,,,,,,,,,,,,,,,,,,,,,,,,,,,,,,,,,,,,,,,,,,,,,,,,,,,,,,,,,,,,,,,,,,,,,,,,,,,,,,,,
1606526456.675455,54.000000,0.000000,4294.743652,3788.076904,4283.589844,4295.641113,4261.666504,4265.000000,4279.358887,4253.974121,4276.025879,4289.358887,4312.948730,4289.487305,3896.666748,4358.717773,0.000000,2.000000,,,,0.000000,4.000000,4.000000,4.000000,4.000000,4.000000,4.000000,4.000000,4.000000,4.000000,4.000000,4.000000,4.000000,4.000000,4.000000,100.000000,,,,,,,,,,,,,,,,,,,,,,,,,,,,,,,,,,,,,,,,,,,,,,,,,,,,,,,,,,,,,,,,,,,,,,,,,,,,,,,,,,,,,,,,,,,,,,,,,,,,,,,,,,,,,,,,,
1606526456.683251,55.000000,0.000000,4289.615234,3789.102539,4290.128418,4294.487305,4273.077148,4264.102539,4284.615234,4260.256348,4280.128418,4295.641113,4324.871582,4297.307617,3907.564209,4363.333496,0.000000,2.000000,,,,0.000000,4.000000,4.000000,4.000000,4.000000,4.000000,4.000000,4.000000,4.000000,4.000000,4.000000,4.000000,4.000000,4.000000,4.000000,100.000000,,,,,,,,,,,,,,,,,,,,,,,,,,,,,,,,,,,,,,,,,,,,,,,,,,,,,,,,,,,,,,,,,,,,,,,,,,,,,,,,,,,,,,,,,,,,,,,,,,,,,,,,,,,,,,,,,
1606526456.690947,56.000000,0.000000,4300.641113,3795.641113,4287.820313,4300.897461,4296.025879,4269.487305,4286.282227,4262.179688,4287.436035,4298.333496,4322.179688,4291.153809,3913.076904,4353.205078,0.000000,2.000000,,,,0.000000,4.000000,4.000000,4.000000,4.000000,4.000000,4.000000,4.000000,4.000000,4.000000,4.000000,4.000000,4.000000,4.000000,4.000000,100.000000,14.000000,0.000000,0.395121,0.166809,-0.830688,-0.354980,-3.999939,3.999939,-3.999939,-36.337833,-120.827042,10.467689,,,,,,,,,,,,,,,,,,,,,,,,,,,,,,,,,,,,,,,,,,,,,,,,,,,,,,,,,,,,,,,,,,,,,,,,,,,,,,,,,,,,,,,,,,,,,,,,,,,,,
1606526456.698643,57.000000,0.000000,4276.922852,3771.281982,4268.461426,4284.230957,4287.179688,4272.179688,4285.769043,4251.538574,4286.410156,4311.922852,4301.282227,4262.179688,3892.307617,4317.948730,0.000000,2.000000,,,,0.000000,4.000000,4.000000,4.000000,4.000000,4.000000,4.000000,4.000000,4.000000,4.000000,4.000000,4.000000,4.000000,4.000000,4.000000,100.000000,,,,,,,,,,,,,,,,,,,,,,,,,,,,,,,,,,,,,,,,,,,,,,,,,,,,,,,,,,,,,,,,,,,,,,,,,,,,,,,,,,,,,,,,,,,,,,,,,,,,,,,,,,,,,,,,,
1606526456.706338,58.000000,0.000000,4247.563965,3726.538574,4248.205078,4252.051270,4265.000000,4261.794922,4276.922852,4230.769043,4261.794922,4291.666504,4285.128418,4241.025879,3869.102539,4284.358887,0.000000,2.000000,,,,0.000000,4.000000,4.000000,4.000000,4.000000,4.000000,4.000000,4.000000,4.000000,4.000000,4.000000,4.000000,4.000000,4.000000,4.000000,100.000000,,,,,,,,,,,,,,,,,,,,,,,,,,,,,,,,,,,,,,,,,,,,,,,,,,,,,,,,,,,,,,,,,,,,,,,,,,,,,,,,,,,,,,,,,,,,,,,,,,,,,,,,,,,,,,,,,
1606526456.714134,59.000000,0.000000,4234.487305,3707.820557,4241.153809,4241.282227,4275.000000,4247.820313,4286.666504,4228.589844,4252.948730,4260.128418,4281.410156,4237.436035,3866.923096,4274.615234,0.000000,2.000000,,,,0.000000,4.000000,4.000000,4.000000,4.000000,4.000000,4.000000,4.000000,4.000000,4.000000,4.000000,4.000000,4.000000,4.000000,4.000000,100.000000,,,,,,,,,,,,,,,,,,,,,,,,,,,,,,,,,,,,,,,,,,,,,,,,,,,,,,,,,,,,,,,,,,,,,,,,,,,,,,,,,,,,,,,,,,,,,,,,,,,,,,,,,,,,,,,,,
1606526456.721830,60.000000,0.000000,4229.743652,3700.000000,4245.128418,4237.051270,4278.846191,4250.897461,4283.333496,4243.589844,4264.102539,4265.384766,4275.769043,4243.461426,3858.846191,4269.358887,0.000000,2.000000,,,,0.000000,4.000000,4.000000,4.000000,4.000000,4.000000,4.000000,4.000000,4.000000,4.000000,4.000000,4.000000,4.000000,4.000000,4.000000,100.000000,15.000000,0.000000,0.380728,0.172546,-0.835022,-0.357788,-3.999939,3.999939,-3.999939,-36.786449,-122.023346,6.579690,,,,,,,,,,,,,,,,,,,,,,,,,,,,,,,,,,,,,,,,,,,,,,,,,,,,,,,,,,,,,,,,,,,,,,,,,,,,,,,,,,,,,,,,,,,,,,,,,,,,,
1606526456.729726,61.000000,0.000000,4235.769043,3705.384521,4243.846191,4243.717773,4273.461426,4246.153809,4261.794922,4247.436035,4268.974121,4292.307617,4285.512695,4259.102539,3853.076904,4273.077148,0.000000,2.000000,,,,0.000000,4.000000,4.000000,4.000000,4.000000,4.000000,4.000000,4.000000,4.000000,4.000000,4.000000,4.000000,4.000000,4.000000,4.000000,100.000000,,,,,,,,,,,,,,,,,,,,,,,,,,,,,,,,,,,,,,,,,,,,,,,,,,,,,,,,,,,,,,,,,,,,,,,,,,,,,,,,,,,,,,,,,,,,,,,,,,,,,,,,,,,,,,,,,
1606526456.737622,62.000000,0.000000,4254.230957,3729.743652,4247.692383,4259.871582,4288.077148,4245.256348,4277.820313,4246.282227,4274.230957,4305.384766,4306.922852,4278.205078,3866.410156,4295.384766,0.000000,2.000000,,,,0.000000,4.000000,4.000000,4.000000,4.000000,4.000000,4.000000,4.000000,4.000000,4.000000,4.000000,4.000000,4.000000,4.000000,4.000000,100.000000,,,,,,,,,,,,,,,,,,,,,,,,,,,,,,,,,,,,,,,,,,,,,,,,,,,,,,,,,,,,,,,,,,,,,,,,,,,,,,,,,,,,,,,,,,,,,,,,,,,,,,,,,,,,,,,,,
1606526456.745617,63.000000,0.000000,4255.641113,3736.281982,4260.512695,4259.358887,4291.025879,4258.589844,4299.743652,4244.358887,4274.615234,4295.128418,4299.487305,4279.615234,3862.179443,4297.307617,0.000000,2.000000,,,,0.000000,4.000000,4.000000,4.000000,4.000000,4.000000,4.000000,4.000000,4.000000,4.000000,4.000000,4.000000,4.000000,4.000000,4.000000,100.000000,,,,,,,,,,,,,,,,,,,,,,,,,,,,,,,,,,,,,,,,,,,,3.057765,2.510536,1.884020,2.170923,1.932877,24.182623,5.609617,3.520819,3.594540,4.599456,2.194865,1.824427,1.979112,2.906975,2.038563,4.026911,2.976092,1.700537,2.972215,3.089422,3.353936,0.888091,2.016424,5.001413,3.369590,2.728188,2.144366,1.870768,2.079077,2.039461,7.818493,2.943498,4.371242,4.099524,3.208425,3.031646,2.620276,4.231409,2.874927,2.207189,1.756694,3.075108,4.166328,3.581969,3.038141,4.181895,5.315702,3.440792,5.507904,3.887439,5.964060,3.119674,2.493800,3.501037,2.900764,2.239311,2.480893,2.839707,2.842277,2.632346,17.318975,3.552318,4.435615,2.810930,2.092971,2.064203,3.675002,2.746043,2.870079,2.529799
1606526456.753513,64.000000,0.000000,4244.102539,3728.076904,4260.512695,4257.692383,4269.358887,4268.077148,4273.974121,4228.974121,4260.897461,4277.948730,4276.666504,4271.922852,3847.179443,4283.333496,3314.000000,2.000000,,,,0.000000,4.000000,4.000000,4.000000,4.000000,4.000000,4.000000,4.000000,4.000000,4.000000,4.000000,4.000000,4.000000,4.000000,4.000000,100.000000,16.000000,0.000000,0.367077,0.178589,-0.838989,-0.359802,-3.999939,3.999939,-3.999939,-37.085526,-122.322426,8.972305,,,,,,,,,,,,,,,,,,,,,,,,,,,,,,,,,,,,,,,,,,,,,,,,,,,,,,,,,,,,,,,,,,,,,,,,,,,,,,,,,,,,,,,,,,,,,,,,,,,,,
1606526456.761409,65.000000,0.000000,4252.692383,3740.384521,4259.230957,4271.794922,4268.589844,4272.307617,4271.666504,4234.358887,4264.743652,4290.897461,4284.871582,4280.000000,3859.230713,4293.974121,3479.000000,2.000000,,,,0.000000,4.000000,4.000000,4.000000,4.000000,4.000000,4.000000,4.000000,4.000000,4.000000,4.000000,4.000000,4.000000,4.000000,4.000000,100.000000,,,,,,,,,,,,,,,,,,,,,,,,,,,,,,,,,,,,,,,,,,,,,,,,,,,,,,,,,,,,,,,,,,,,,,,,,,,,,,,,,,,,,,,,,,,,,,,,,,,,,,,,,,,,,,,,,
1606526456.769304,66.000000,0.000000,4251.794922,3752.692383,4258.333496,4265.897461,4282.692383,4284.102539,4306.922852,4249.230957,4279.615234,4312.948730,4299.487305,4277.179688,3875.128174,4305.256348,3176.000000,2.000000,,,,0.000000,4.000000,4.000000,4.000000,4.000000,4.000000,4.000000,4.000000,4.000000,4.000000,4.000000,4.000000,4.000000,4.000000,4.000000,100.000000,,,,,,,,,,,,,,,,,,,,,,,,,,,,,,,,,,,,,,,,,,,,,,,,,,,,,,,,,,,,,,,,,,,,,,,,,,,,,,,,,,,,,,,,,,,,,,,,,,,,,,,,,,,,,,,,,
1606526456.777100,67.000000,0.000000,4250.384766,3747.435791,4263.846191,4254.102539,4286.922852,4296.922852,4317.436035,4254.743652,4274.743652,4298.077148,4298.717773,4272.179688,3870.897461,4299.615234,3603.000000,2.000000,,,,0.000000,4.000000,4.000000,4.000000,4.000000,4.000000,4.000000,4.000000,4.000000,4.000000,4.000000,4.000000,4.000000,4.000000,4.000000,100.000000,,,,,,,,,,,,,,,,,,,,,,,,,,,,,,,,,,,,,,,,,,,,,,,,,,,,,,,,,,,,,,,,,,,,,,,,,,,,,,,,,,,,,,,,,,,,,,,,,,,,,,,,,,,,,,,,,
1606526456.784796,68.000000,0.000000,4256.025879,3754.743652,4275.000000,4272.820313,4286.410156,4278.974121,4303.846191,4271.153809,4277.563965,4280.641113,4304.871582,4282.563965,3870.000000,4303.717773,3557.000000,2.000000,,,,0.000000,4.000000,4.000000,4.000000,4.000000,4.000000,4.000000,4.000000,4.000000,4.000000,4.000000,4.000000,4.000000,4.000000,4.000000,100.000000,17.000000,0.000000,0.362238,0.181152,-0.840332,-0.360291,-3.999939,3.999939,-3.999939,-36.038757,-122.920578,10.318151,,,,,,,,,,,,,,,,,,,,,,,,,,,,,,,,,,,,,,,,,,,,,,,,,,,,,,,,,,,,,,,,,,,,,,,,,,,,,,,,,,,,,,,,,,,,,,,,,,,,,
1606526456.792492,69.000000,0.000000,4265.128418,3770.128174,4282.436035,4280.641113,4285.897461,4259.871582,4294.230957,4284.230957,4291.538574,4294.102539,4312.179688,4294.358887,3883.974365,4316.538574,2180.000000,2.000000,,,,0.000000,4.000000,4.000000,4.000000,4.000000,4.000000,4.000000,4.000000,4.000000,4.000000,4.000000,4.000000,4.000000,4.000000,4.000000,100.000000,,,,,,,,,,,,,,,,,,,,,,,,,,,,,,,,,,,,,,,,,,,,,,,,,,,,,,,,,,,,,,,,,,,,,,,,,,,,,,,,,,,,,,,,,,,,,,,,,,,,,,,,,,,,,,,,,
1606526456.800188,70.000000,0.000000,4247.179688,3777.564209,4270.897461,4262.948730,4294.487305,4258.589844,4292.051270,4274.743652,4290.897461,4295.512695,4297.948730,4275.641113,3890.641113,4311.025879,3395.000000,2.000000,,,,0.000000,4.000000,4.000000,4.000000,4.000000,4.000000,4.000000,4.000000,4.000000,4.000000,4.000000,4.000000,4.000000,4.000000,4.000000,100.000000,,,,,,,,,,,,,,,,,,,,,,,,,,,,,,,,,,,,,,,,,,,,,,,,,,,,,,,,,,,,,,,,,,,,,,,,,,,,,,,,,,,,,,,,,,,,,,,,,,,,,,,,,,,,,,,,,
1606526456.807984,71.000000,0.000000,4244.230957,3781.281982,4266.794922,4258.589844,4299.358887,4271.666504,4292.563965,4268.717773,4291.410156,4274.615234,4278.846191,4258.846191,3880.512939,4296.153809,3232.000000,2.000000,,,,0.000000,4.000000,4.000000,4.000000,4.000000,4.000000,4.000000,4.000000,4.000000,4.000000,4.000000,4.000000,4.000000,4.000000,4.000000,100.000000,,,,,,,,,,,,,,,,,,,,,,,,,,,,,,,,,,,,,,,,,,,,,,,,,,,,,,,,,,,,,,,,,,,,,,,,,,,,,,,,,,,,,,,,,,,,,,,,,,,,,,,,,,,,,,,,,
1606526456.815879,72.000000,0.000000,4245.897461,3786.153809,4263.333496,4265.256348,4298.077148,4273.077148,4295.897461,4275.128418,4296.025879,4286.922852,4283.846191,4262.692383,3870.384521,4295.897461,3235.000000,2.000000,,,,0.000000,4.000000,4.000000,4.000000,4.000000,4.000000,4.000000,4.000000,4.000000,4.000000,4.000000,4.000000,4.000000,4.000000,4.000000,100.000000,18.000000,0.000000,0.366919,0.179443,-0.838928,-0.359680,-3.999939,3.999939,-3.999939,-36.337833,-122.771042,8.972305,,,,,,,,,,,,,,,,,,,,,,,,,,,,,,,,,,,,,,,,,,,,,,,,,,,,,,,,,,,,,,,,,,,,,,,,,,,,,,,,,,,,,,,,,,,,,,,,,,,,,
1606526456.823775,73.000000,0.000000,4242.820313,3778.461426,4253.974121,4253.589844,4290.000000,4271.282227,4301.153809,4274.102539,4279.102539,4289.743652,4287.436035,4268.589844,3863.846191,4296.410156,3569.000000,2.000000,,,,0.000000,4.000000,4.000000,4.000000,4.000000,4.000000,4.000000,4.000000,4.000000,4.000000,4.000000,4.000000,4.000000,4.000000,4.000000,100.000000,,,,,,,,,,,,,,,,,,,,,,,,,,,,,,,,,,,,,,,,,,,,,,,,,,,,,,,,,,,,,,,,,,,,,,,,,,,,,,,,,,,,,,,,,,,,,,,,,,,,,,,,,,,,,,,,,
1606526456.831671,74.000000,0.000000,4228.717773,3770.897461,4252.692383,4246.922852,4280.512695,4263.461426,4298.717773,4277.692383,4272.820313,4256.282227,4277.307617,4257.820313,3862.307617,4290.897461,3455.000000,2.000000,,,,0.000000,4.000000,4.000000,4.000000,4.000000,4.000000,4.000000,4.000000,4.000000,4.000000,4.000000,4.000000,4.000000,4.000000,4.000000,100.000000,,,,,,,,,,,,,,,,,,,,,,,,,,,,,,,,,,,,,,,,,,,,,,,,,,,,,,,,,,,,,,,,,,,,,,,,,,,,,,,,,,,,,,,,,,,,,,,,,,,,,,,,,,,,,,,,,
1606526456.839567,75.000000,0.000000,4225.128418,3770.000000,4249.743652,4247.307617,4270.641113,4268.846191,4282.563965,4283.205078,4282.179688,4237.948730,4266.666504,4252.051270,3857.564209,4290.769043,3471.000000,2.000000,,,,0.000000,4.000000,4.000000,4.000000,4.000000,4.000000,4.000000,4.000000,4.000000,4.000000,4.000000,4.000000,4.000000,4.000000,4.000000,100.000000,,,,,,,,,,,,,,,,,,,,,,,,,,,,,,,,,,,,,,,,,,,,,,,,,,,,,,,,,,,,,,,,,,,,,,,,,,,,,,,,,,,,,,,,,,,,,,,,,,,,,,,,,,,,,,,,,
1606526456.847462,76.000000,0.000000,4226.666504,3776.281982,4241.666504,4248.589844,4271.282227,4273.717773,4280.512695,4279.615234,4288.974121,4276.666504,4275.128418,4255.897461,3866.666748,4304.871582,3468.000000,2.000000,,,,0.000000,4.000000,4.000000,4.000000,4.000000,4.000000,4.000000,4.000000,4.000000,4.000000,4.000000,4.000000,4.000000,4.000000,4.000000,100.000000,19.000000,0.000000,0.376551,0.175232,-0.836121,-0.358337,-3.999939,3.999939,-3.999939,-37.534142,-123.518730,9.719997,,,,,,,,,,,,,,,,,,,,,,,,,,,,,,,,,,,,,,,,,,,,,,,,,,,,,,,,,,,,,,,,,,,,,,,,,,,,,,,,,,,,,,,,,,,,,,,,,,,,,
1606526456.855358,77.000000,0.000000,4236.025879,3786.281982,4247.179688,4259.743652,4269.230957,4273.974121,4295.641113,4281.410156,4292.179688,4304.743652,4289.358887,4262.692383,3879.230713,4313.974121,3182.000000,2.000000,,,,0.000000,4.000000,4.000000,4.000000,4.000000,4.000000,4.000000,4.000000,4.000000,4.000000,4.000000,4.000000,4.000000,4.000000,4.000000,100.000000,,,,,,,,,,,,,,,,,,,,,,,,,,,,,,,,,,,,,,,,,,,,,,,,,,,,,,,,,,,,,,,,,,,,,,,,,,,,,,,,,,,,,,,,,,,,,,,,,,,,,,,,,,,,,,,,,
1606526456.863054,78.000000,0.000000,4237.051270,3795.128174,4251.922852,4263.589844,4269.358887,4275.512695,4297.307617,4282.436035,4295.897461,4278.333496,4288.974121,4259.743652,3876.410156,4305.256348,3455.000000,2.000000,,,,0.000000,4.000000,4.000000,4.000000,4.000000,4.000000,4.000000,4.000000,4.000000,4.000000,4.000000,4.000000,4.000000,4.000000,4.000000,100.000000,,,,,,,,,,,,,,,,,,,,,,,,,,,,,,,,,,,,,,,,,,,,,,,,,,,,,,,,,,,,,,,,,,,,,,,,,,,,,,,,,,,,,,,,,,,,,,,,,,,,,,,,,,,,,,,,,
1606526456.870850,79.000000,0.000000,4226.666504,3795.897461,4246.025879,4250.769043,4281.153809,4278.205078,4291.794922,4268.846191,4285.512695,4262.051270,4280.384766,4246.410156,3872.307617,4297.051270,3471.000000,2.000000,,,,0.000000,4.000000,4.000000,4.000000,4.000000,4.000000,4.000000,4.000000,4.000000,4.000000,4.000000,4.000000,4.000000,4.000000,4.000000,100.000000,,,,,,,,,,,,,,,,,,,,,,,,,,,,,,,,,,,,,,,,,,,,4.020073,2.606545,2.022548,2.282022,1.812114,41.669491,7.452476,5.798922,3.828129,4.367358,2.587165,2.299738,2.034917,3.005604,1.948880,5.190725,2.958617,1.581769,3.077118,3.036435,2.769659,1.021807,1.727683,5.104881,3.039859,3.353585,3.139699,1.915992,2.192511,1.906667,11.931963,3.271386,4.776603,4.415557,2.983933,3.346122,2.372860,4.055158,3.021523,2.101194,2.410595,3.215394,4.040419,4.348004,2.920420,5.912951,5.247646,3.697119,5.809985,3.812886,9.747277,3.322389,2.485339,3.645155,2.634374,2.609017,2.441442,2.577964,2.919161,2.500561,29.595835,5.494576,6.355485,3.137482,1.965252,1.937858,4.435289,2.595393,3.007493,2.285256
1606526456.878546,80.000000,0.000000,4230.384766,3797.692383,4247.692383,4247.820313,4287.436035,4271.666504,4298.077148,4264.102539,4278.461426,4282.820313,4285.128418,4245.000000,3886.666748,4308.205078,3468.000000,2.000000,,,,0.000000,4.000000,4.000000,4.000000,4.000000,4.000000,4.000000,4.000000,4.000000,4.000000,4.000000,4.000000,4.000000,4.000000,4.000000,100.000000,20.000000,0.000000,0.386334,0.170654,-0.833252,-0.356812,-3.999939,3.999939,-3.999939,-36.337833,-122.322426,8.972305,,,,,,,,,,,,,,,,,,,,,,,,,,,,,,,,,,,,,,,,,,,,,,,,,,,,,,,,,,,,,,,,,,,,,,,,,,,,,,,,,,,,,,,,,,,,,,,,,,,,,
1606526456.886241,81.000000,0.000000,4231.538574,3796.666748,4249.615234,4254.358887,4276.282227,4270.256348,4293.846191,4274.102539,4286.410156,4294.743652,4288.589844,4250.641113,3897.948730,4317.051270,3182.000000,2.000000,,,,0.000000,4.000000,4.000000,4.000000,4.000000,4.000000,4.000000,4.000000,4.000000,4.000000,4.000000,4.000000,4.000000,4.000000,4.000000,100.000000,,,,,,,,,,,,,,,,,,,,,,,,,,,,,,,,,,,,,,,,,,,,,,,,,,,,,,,,,,,,,,,,,,,,,,,,,,,,,,,,,,,,,,,,,,,,,,,,,,,,,,,,,,,,,,,,,
1606526456.893937,82.000000,0.000000,4221.153809,3787.179443,4236.666504,4248.077148,4260.128418,4278.846191,4268.974121,4261.282227,4275.769043,4273.077148,4269.871582,4246.538574,3875.512939,4298.717773,3455.000000,2.000000,,,,0.000000,4.000000,4.000000,4.000000,4.000000,4.000000,4.000000,4.000000,4.000000,4.000000,4.000000,4.000000,4.000000,4.000000,4.000000,100.000000,,,,,,,,,,,,,,,,,,,,,,,,,,,,,,,,,,,,,,,,,,,,,,,,,,,,,,,,,,,,,,,,,,,,,,,,,,,,,,,,,,,,,,,,,,,,,,,,,,,,,,,,,,,,,,,,,
1606526456.901733,83.000000,0.000000,4206.282227,3792.435791,4220.769043,4244.743652,4252.820313,4269.230957,4251.538574,4240.897461,4263.974121,4261.538574,4265.384766,4237.820313,3859.615479,4285.641113,3471.000000,2.000000,,,,0.000000,4.000000,4.000000,4.000000,4.000000,4.000000,4.000000,4.000000,4.000000,4.000000,4.000000,4.000000,4.000000,4.000000,4.000000,100.000000,,,,,,,,,,,,,,,,,,,,,,,,,,,,,,,,,,,,,,,,,,,,,,,,,,,,,,,,,,,,,,,,,,,,,,,,,,,,,,,,,,,,,,,,,,,,,,,,,,,,,,,,,,,,,,,,,
1606526456.909429,84.000000,0.000000,4211.922852,3802.051270,4227.307617,4248.205078,4254.615234,4271.538574,4267.948730,4248.974121,4274.102539,4269.102539,4278.333496,4246.538574,3878.461426,4292.051270,3468.000000,2.000000,,,,0.000000,4.000000,4.000000,4.000000,4.000000,4.000000,4.000000,4.000000,4.000000,4.000000,4.000000,4.000000,4.000000,4.000000,4.000000,100.000000,21.000000,0.000000,0.396150,0.166016,-0.830200,-0.355347,-3.999939,3.999939,-3.999939,-35.440605,-124.266426,8.523689,,,,,,,,,,,,,,,,,,,,,,,,,,,,,,,,,,,,,,,,,,,,,,,,,,,,,,,,,,,,,,,,,,,,,,,,,,,,,,,,,,,,,,,,,,,,,,,,,,,,,
1606526456.917125,85.000000,0.000000,4208.333496,3794.230713,4233.589844,4242.307617,4259.871582,4286.025879,4283.205078,4246.666504,4277.436035,4277.820313,4281.922852,4249.487305,3898.846191,4294.102539,3182.000000,2.000000,,,,0.000000,4.000000,4.000000,4.000000,4.000000,4.000000,4.000000,4.000000,4.000000,4.000000,4.000000,4.000000,4.000000,4.000000,4.000000,100.000000,,,,,,,,,,,,,,,,,,,,,,,,,,,,,,,,,,,,,,,,,,,,,,,,,,,,,,,,,,,,,,,,,,,,,,,,,,,,,,,,,,,,,,,,,,,,,,,,,,,,,,,,,,,,,,,,,
1606526456.924821,86.000000,0.000000,4216.410156,3791.410156,4240.256348,4246.153809,4254.230957,4288.846191,4259.230957,4233.077148,4266.410156,4273.846191,4277.436035,4254.615234,3897.435791,4293.461426,3455.000000,2.000000,,,,0.000000,4.000000,4.000000,4.000000,4.000000,4.000000,4.000000,4.000000,4.000000,4.000000,4.000000,4.000000,4.000000,4.000000,4.000000,100.000000,,,,,,,,,,,,,,,,,,,,,,,,,,,,,,,,,,,,,,,,,,,,,,,,,,,,,,,,,,,,,,,,,,,,,,,,,,,,,,,,,,,,,,,,,,,,,,,,,,,,,,,,,,,,,,,,,
1606526456.932617,87.000000,0.000000,4223.974121,3807.435791,4244.358887,4267.051270,4245.769043,4277.179688,4243.589844,4239.102539,4273.717773,4270.641113,4274.487305,4255.384766,3896.538574,4297.307617,3471.000000,2.000000,,,,0.000000,4.000000,4.000000,4.000000,4.000000,4.000000,4.000000,4.000000,4.000000,4.000000,4.000000,4.000000,4.000000,4.000000,4.000000,100.000000,,,,,,,,,,,,,,,,,,,,,,,,,,,,,,,,,,,,,,,,,,,,,,,,,,,,,,,,,,,,,,,,,,,,,,,,,,,,,,,,,,,,,,,,,,,,,,,,,,,,,,,,,,,,,,,,,
1606526456.940512,88.000000,0.000000,4223.077148,3806.923096,4236.666504,4264.102539,4239.487305,4275.769043,4262.948730,4237.692383,4268.589844,4265.128418,4262.692383,4251.282227,3893.333252,4293.333496,3468.000000,2.000000,,,,0.000000,4.000000,4.000000,4.000000,4.000000,4.000000,4.000000,4.000000,4.000000,4.000000,4.000000,4.000000,4.000000,4.000000,4.000000,100.000000,22.000000,0.000000,0.402510,0.162659,-0.828247,-0.354309,-3.999939,3.999939,-3.999939,-36.337833,-123.070114,9.271381,,,,,,,,,,,,,,,,,,,,,,,,,,,,,,,,,,,,,,,,,,,,,,,,,,,,,,,,,,,,,,,,,,,,,,,,,,,,,,,,,,,,,,,,,,,,,,,,,,,,,
1606526456.948408,89.000000,0.000000,4215.897461,3810.512939,4230.384766,4249.615234,4248.333496,4266.794922,4269.615234,4233.717773,4257.948730,4265.128418,4269.487305,4257.563965,3890.641113,4295.641113,3182.000000,2.000000,,,,0.000000,4.000000,4.000000,4.000000,4.000000,4.000000,4.000000,4.000000,4.000000,4.000000,4.000000,4.000000,4.000000,4.000000,4.000000,100.000000,,,,,,,,,,,,,,,,,,,,,,,,,,,,,,,,,,,,,,,,,,,,,,,,,,,,,,,,,,,,,,,,,,,,,,,,,,,,,,,,,,,,,,,,,,,,,,,,,,,,,,,,,,,,,,,,,
1606526456.956304,90.000000,0.000000,4234.871582,3840.769287,4247.307617,4253.974121,4271.794922,4270.641113,4259.102539,4255.256348,4280.512695,4282.051270,4291.794922,4278.846191,3902.307617,4311.538574,3455.000000,2.000000,,,,0.000000,4.000000,4.000000,4.000000,4.000000,4.000000,4.000000,4.000000,4.000000,4.000000,4.000000,4.000000,4.000000,4.000000,4.000000,100.000000,,,,,,,,,,,,,,,,,,,,,,,,,,,,,,,,,,,,,,,,,,,,,,,,,,,,,,,,,,,,,,,,,,,,,,,,,,,,,,,,,,,,,,,,,,,,,,,,,,,,,,,,,,,,,,,,,
1606526456.964299,91.000000,0.000000,4240.769043,3861.923096,4255.384766,4267.436035,4284.230957,4276.666504,4272.307617,4263.461426,4290.384766,4278.589844,4294.102539,4276.410156,3916.410156,4315.000000,3471.000000,2.000000,,,,0.000000,4.000000,4.000000,4.000000,4.000000,4.000000,4.000000,4.000000,4.000000,4.000000,4.000000,4.000000,4.000000,4.000000,4.000000,100.000000,,,,,,,,,,,,,,,,,,,,,,,,,,,,,,,,,,,,,,,,,,,,,,,,,,,,,,,,,,,,,,,,,,,,,,,,,,,,,,,,,,,,,,,,,,,,,,,,,,,,,,,,,,,,,,,,,
1606526456.972195,92.000000,0.000000,4224.871582,3849.743652,4242.179688,4263.846191,4260.128418,4266.282227,4279.487305,4233.205078,4257.307617,4251.153809,4274.358887,4249.743652,3906.281982,4300.384766,3468.000000,2.000000,,,,0.000000,4.000000,4.000000,4.000000,4.000000,4.000000,4.000000,4.000000,4.000000,4.000000,4.000000,4.000000,4.000000,4.000000,4.000000,100.000000,23.000000,0.000000,0.509104,0.664063,-0.513977,-0.188843,-3.999939,3.999939,-3.999939,-36.038757,-122.621498,8.673228,,,,,,,,,,,,,,,,,,,,,,,,,,,,,,,,,,,,,,,,,,,,,,,,,,,,,,,,,,,,,,,,,,,,,,,,,,,,,,,,,,,,,,,,,,,,,,,,,,,,,
1606526456.979891,93.000000,0.000000,4221.538574,3845.128174,4243.333496,4259.230957,4250.641113,4254.743652,4264.358887,4225.384766,4250.897461,4256.025879,4268.846191,4245.000000,3903.205078,4302.563965,3182.000000,2.000000,,,,0.000000,4.000000,4.000000,4.000000,4.000000,4.000000,4.000000,4.000000,4.000000,4.000000,4.000000,4.000000,4.000000,4.000000,4.000000,100.000000,,,,,,,,,,,,,,,,,,,,,,,,,,,,,,,,,,,,,,,,,,,,,,,,,,,,,,,,,,,,,,,,,,,,,,,,,,,,,,,,,,,,,,,,,,,,,,,,,,,,,,,,,,,,,,,,,
1606526456.987587,94.000000,0.000000,4223.589844,3849.358887,4248.974121,4259.615234,4256.538574,4252.436035,4247.820313,4233.461426,4260.256348,4254.358887,4267.948730,4254.102539,3909.743652,4305.000000,3455.000000,2.000000,,,,0.000000,4.000000,4.000000,4.000000,4.000000,4.000000,4.000000,4.000000,4.000000,4.000000,4.000000,4.000000,4.000000,4.000000,4.000000,100.000000,,,,,,,,,,,,,,,,,,,,,,,,,,,,,,,,,,,,,,,,,,,,,,,,,,,,,,,,,,,,,,,,,,,,,,,,,,,,,,,,,,,,,,,,,,,,,,,,,,,,,,,,,,,,,,,,,
1606526456.995183,95.000000,0.000000,4216.025879,3846.153809,4247.179688,4261.153809,4246.922852,4247.563965,4253.333496,4226.153809,4241.410156,4232.436035,4257.563965,4248.205078,3903.974365,4285.897461,3471.000000,2.000000,,,,0.000000,4.000000,4.000000,4.000000,4.000000,4.000000,4.000000,4.000000,4.000000,4.000000,4.000000,4.000000,4.000000,4.000000,4.000000,100.000000,,,,,,,,,,,,,,,,,,,,,,,,,,,,,,,,,,,,,,,,,,,,5.374496,2.816369,2.412137,2.270125,1.720990,60.099281,9.580104,8.722235,3.912362,4.059216,3.569671,3.042500,2.202514,2.909551,1.884297,6.899946,2.816841,1.567830,2.940158,3.018067,2.635579,1.333663,1.466112,5.087929,2.727796,3.951496,4.315119,2.167053,2.199731,1.760897,16.913340,3.764404,5.197601,4.425740,2.847684,4.372865,2.034438,3.958078,3.071577,2.038339,3.638684,3.251868,4.174400,5.034067,2.881922,8.661028,4.806075,4.108498,5.744971,3.944003,14.605117,3.676541,2.637177,3.546325,2.422467,3.538429,2.513402,2.541218,2.822339,2.348240,42.163181,8.153835,8.799136,3.390278,1.944158,2.584008,5.866897,2.784019,3.016022,2.119005
1606526457.002879,96.000000,0.000000,4213.717773,3849.358887,4248.717773,4265.256348,4249.358887,4251.538574,4267.436035,4233.333496,4243.333496,4259.871582,4259.487305,4244.102539,3903.589844,4279.487305,3468.000000,2.000000,,,,0.000000,4.000000,4.000000,4.000000,4.000000,4.000000,4.000000,4.000000,4.000000,4.000000,4.000000,4.000000,4.000000,4.000000,4.000000,100.000000,24.000000,0.000000,0.506582,0.664368,-0.515869,-0.189392,-3.999939,3.999939,-3.999939,-38.281834,-122.322426,8.523689,,,,,,,,,,,,,,,,,,,,,,,,,,,,,,,,,,,,,,,,,,,,,,,,,,,,,,,,,,,,,,,,,,,,,,,,,,,,,,,,,,,,,,,,,,,,,,,,,,,,,
1606526457.010575,97.000000,0.000000,4225.512695,3858.589844,4248.974121,4260.641113,4259.358887,4255.000000,4256.282227,4250.128418,4266.282227,4291.025879,4278.589844,4257.563965,3913.461426,4292.307617,3182.000000,2.000000,,,,0.000000,4.000000,4.000000,4.000000,4.000000,4.000000,4.000000,4.000000,4.000000,4.000000,4.000000,4.000000,4.000000,4.000000,4.000000,100.000000,,,,,,,,,,,,,,,,,,,,,,,,,,,,,,,,,,,,,,,,,,,,,,,,,,,,,,,,,,,,,,,,,,,,,,,,,,,,,,,,,,,,,,,,,,,,,,,,,,,,,,,,,,,,,,,,,
1606526457.018271,98.000000,0.000000,4218.589844,3856.666748,4236.666504,4250.256348,4244.615234,4248.461426,4238.461426,4237.563965,4249.230957,4256.538574,4269.487305,4252.692383,3908.205078,4283.589844,3455.000000,2.000000,,,,0.000000,4.000000,4.000000,4.000000,4.000000,4.000000,4.000000,4.000000,4.000000,4.000000,4.000000,4.000000,4.000000,4.000000,4.000000,100.000000,,,,,,,,,,,,,,,,,,,,,,,,,,,,,,,,,,,,,,,,,,,,,,,,,,,,,,,,,,,,,,,,,,,,,,,,,,,,,,,,,,,,,,,,,,,,,,,,,,,,,,,,,,,,,,,,,
1606526457.026266,99.000000,0.000000,4219.743652,3853.076904,4239.230957,4256.025879,4241.794922,4262.307617,4256.153809,4232.051270,4233.333496,4236.794922,4253.077148,4247.820313,3906.025635,4273.461426,3471.000000,2.000000,,,,0.000000,4.000000,4.000000,4.000000,4.000000,4.000000,4.000000,4.000000,4.000000,4.000000,4.000000,4.000000,4.000000,4.000000,4.000000,100.000000,,,,,,,,,,,,,,,,,,,,,,,,,,,,,,,,,,,,,,,,,,,,,,,,,,,,,,,,,,,,,,,,,,,,,,,,,,,,,,,,,,,,,,,,,,,,,,,,,,,,,,,,,,,,,,,,,
1606526457.034162,100.000000,0.000000,4218.717773,3858.589844,4243.461426,4262.436035,4256.666504,4261.410156,4265.641113,4260.897461,4264.102539,4257.563965,4273.974121,4259.615234,3923.333252,4286.153809,3468.000000,2.000000,,,,0.000000,4.000000,4.000000,4.000000,4.000000,4.000000,4.000000,4.000000,4.000000,4.000000,4.000000,4.000000,4.000000,4.000000,4.000000,100.000000,25.000000,0.000000,0.504474,0.664551,-0.517517,-0.189880,-3.999939,3.999939,-3.999939,-36.337833,-123.817810,8.972305,,,,,,,,,,,,,,,,,,,,,,,,,,,,,,,,,,,,,,,,,,,,,,,,,,,,,,,,,,,,,,,,,,,,,,,,,,,,,,,,,,,,,,,,,,,,,,,,,,,,,
1606526457.042058,101.000000,0.000000,4220.641113,3859.230713,4236.153809,4253.077148,4240.769043,4249.358887,4237.051270,4270.384766,4276.666504,4250.769043,4281.538574,4267.179688,3916.923096,4280.000000,3182.000000,2.000000,,,,0.000000,4.000000,4.000000,4.000000,4.000000,4.000000,4.000000,4.000000,4.000000,4.000000,4.000000,4.000000,4.000000,4.000000,4.000000,100.000000,,,,,,,,,,,,,,,,,,,,,,,,,,,,,,,,,,,,,,,,,,,,,,,,,,,,,,,,,,,,,,,,,,,,,,,,,,,,,,,,,,,,,,,,,,,,,,,,,,,,,,,,,,,,,,,,,
1606526457.049754,102.000000,0.000000,4226.666504,3877.307617,4237.692383,4260.769043,4247.692383,4257.820313,4236.025879,4247.051270,4259.487305,4254.871582,4266.666504,4263.717773,3905.769287,4278.205078,3455.000000,2.000000,,,,0.000000,4.000000,4.000000,4.000000,4.000000,4.000000,4.000000,4.000000,4.000000,4.000000,4.000000,4.000000,4.000000,4.000000,4.000000,100.000000,,,,,,,,,,,,,,,,,,,,,,,,,,,,,,,,,,,,,,,,,,,,,,,,,,,,,,,,,,,,,,,,,,,,,,,,,,,,,,,,,,,,,,,,,,,,,,,,,,,,,,,,,,,,,,,,,
1606526457.057550,103.000000,0.000000,4231.538574,3882.948730,4248.077148,4261.410156,4268.333496,4274.615234,4261.025879,4227.692383,4250.384766,4274.615234,4257.563965,4264.230957,3918.718018,4295.128418,3471.000000,2.000000,,,,0.000000,4.000000,4.000000,4.000000,4.000000,4.000000,4.000000,4.000000,4.000000,4.000000,4.000000,4.000000,4.000000,4.000000,4.000000,100.000000,,,,,,,,,,,,,,,,,,,,,,,,,,,,,,,,,,,,,,,,,,,,,,,,,,,,,,,,,,,,,,,,,,,,,,,,,,,,,,,,,,,,,,,,,,,,,,,,,,,,,,,,,,,,,,,,,
1606526457.065245,104.000000,0.000000,4206.794922,3855.000000,4236.538574,4240.128418,4246.025879,4263.205078,4264.615234,4233.974121,4261.410156,4280.256348,4256.538574,4255.769043,3925.897461,4288.846191,3468.000000,2.000000,,,,0.000000,4.000000,4.000000,4.000000,4.000000,4.000000,4.000000,4.000000,4.000000,4.000000,4.000000,4.000000,4.000000,4.000000,4.000000,100.000000,26.000000,0.000000,0.501693,0.664978,-0.519287,-0.190918,-3.999939,3.999939,-3.999939,-36.786449,-122.023346,9.271381,,,,,,,,,,,,,,,,,,,,,,,,,,,,,,,,,,,,,,,,,,,,,,,,,,,,,,,,,,,,,,,,,,,,,,,,,,,,,,,,,,,,,,,,,,,,,,,,,,,,,
1606526457.072941,105.000000,0.000000,4203.589844,3852.564209,4225.384766,4241.666504,4226.538574,4261.794922,4257.692383,4240.512695,4254.230957,4264.615234,4254.358887,4246.666504,3917.692383,4273.846191,3182.000000,2.000000,,,,0.000000,4.000000,4.000000,4.000000,4.000000,4.000000,4.000000,4.000000,4.000000,4.000000,4.000000,4.000000,4.000000,4.000000,4.000000,100.000000,,,,,,,,,,,,,,,,,,,,,,,,,,,,,,,,,,,,,,,,,,,,,,,,,,,,,,,,,,,,,,,,,,,,,,,,,,,,,,,,,,,,,,,,,,,,,,,,,,,,,,,,,,,,,,,,,
1606526457.080637,106.000000,0.000000,4232.820313,3905.641113,4238.717773,4282.179688,4251.538574,4266.922852,4268.717773,4233.077148,4241.922852,4253.589844,4258.846191,4253.461426,3929.102539,4299.358887,3455.000000,2.000000,,,,0.000000,4.000000,4.000000,4.000000,4.000000,4.000000,4.000000,4.000000,4.000000,4.000000,4.000000,4.000000,4.000000,4.000000,4.000000,100.000000,,,,,,,,,,,,,,,,,,,,,,,,,,,,,,,,,,,,,,,,,,,,,,,,,,,,,,,,,,,,,,,,,,,,,,,,,,,,,,,,,,,,,,,,,,,,,,,,,,,,,,,,,,,,,,,,,
1606526457.088433,107.000000,0.000000,4260.641113,3957.179443,4254.871582,4299.487305,4257.948730,4266.282227,4272.051270,4223.589844,4247.436035,4252.179688,4265.128418,4275.897461,3950.769287,4340.256348,3471.000000,2.000000,,,,0.000000,4.000000,4.000000,4.000000,4.000000,4.000000,4.000000,4.000000,4.000000,4.000000,4.000000,4.000000,4.000000,4.000000,4.000000,100.000000,,,,,,,,,,,,,,,,,,,,,,,,,,,,,,,,,,,,,,,,,,,,,,,,,,,,,,,,,,,,,,,,,,,,,,,,,,,,,,,,,,,,,,,,,,,,,,,,,,,,,,,,,,,,,,,,,
1606526457.096129,108.000000,0.000000,4273.205078,3996.153809,4259.358887,4292.948730,4240.641113,4261.410156,4256.282227,4225.256348,4257.692383,4252.692383,4275.256348,4288.077148,3972.948730,4361.025879,3468.000000,2.000000,,,,0.000000,4.000000,4.000000,4.000000,4.000000,4.000000,4.000000,4.000000,4.000000,4.000000,4.000000,4.000000,4.000000,4.000000,4.000000,100.000000,27.000000,0.000000,0.497628,0.665527,-0.521790,-0.192810,-3.999939,3.999939,-3.999939,-35.440605,-123.518730,9.271381,,,,,,,,,,,,,,,,,,,,,,,,,,,,,,,,,,,,,,,,,,,,,,,,,,,,,,,,,,,,,,,,,,,,,,,,,,,,,,,,,,,,,,,,,,,,,,,,,,,,,
1606526457.103825,109.000000,0.000000,4298.205078,4044.615479,4275.512695,4307.692383,4241.025879,4262.820313,4242.051270,4235.512695,4253.461426,4248.589844,4287.436035,4295.769043,3996.794922,4382.692383,3182.000000,2.000000,,,,0.000000,4.000000,4.000000,4.000000,4.000000,4.000000,4.000000,4.000000,4.000000,4.000000,4.000000,4.000000,4.000000,4.000000,4.000000,100.000000,,,,,,,,,,,,,,,,,,,,,,,,,,,,,,,,,,,,,,,,,,,,,,,,,,,,,,,,,,,,,,,,,,,,,,,,,,,,,,,,,,,,,,,,,,,,,,,,,,,,,,,,,,,,,,,,,
1606526457.111521,110.000000,0.000000,4319.487305,4091.153809,4283.846191,4331.282227,4242.692383,4257.820313,4241.025879,4232.179688,4238.205078,4244.871582,4289.871582,4305.512695,3999.358887,4404.102539,3455.000000,2.000000,,,,0.000000,4.000000,4.000000,4.000000,4.000000,4.000000,4.000000,4.000000,4.000000,4.000000,4.000000,4.000000,4.000000,4.000000,4.000000,100.000000,,,,,,,,,,,,,,,,,,,,,,,,,,,,,,,,,,,,,,,,,,,,,,,,,,,,,,,,,,,,,,,,,,,,,,,,,,,,,,,,,,,,,,,,,,,,,,,,,,,,,,,,,,,,,,,,,
1606526457.119516,111.000000,0.000000,4305.769043,4110.769043,4261.153809,4331.410156,4231.922852,4248.461426,4237.307617,4206.922852,4216.410156,4231.794922,4271.153809,4293.717773,3981.281982,4396.153809,3471.000000,2.000000,,,,0.000000,4.000000,4.000000,4.000000,4.000000,4.000000,4.000000,4.000000,4.000000,4.000000,4.000000,4.000000,4.000000,4.000000,4.000000,100.000000,,,,,,,,,,,,,,,,,,,,,,,,,,,,,,,,,,,,,,,,,,,,6.627808,3.215046,2.984011,2.126900,1.620481,73.841461,11.549016,11.458477,3.813650,3.665747,4.714951,3.918634,2.477917,2.596018,1.784031,8.374934,2.665194,1.694219,2.590597,2.950260,2.598780,1.762155,1.287396,4.789588,2.386762,4.530369,5.360465,2.598361,2.064675,1.579438,20.828268,4.301980,5.560627,4.073582,2.710159,5.657556,1.774266,3.998719,2.981826,1.975261,4.902984,3.153278,4.481521,5.428061,2.835837,11.354506,4.183789,4.580356,5.309315,4.133005,18.766838,4.140930,2.942343,3.213856,2.225411,4.645710,2.719773,2.810925,2.533013,2.144184,52.307953,10.840026,10.929057,3.502180,1.955356,3.671149,7.835953,3.459950,2.890456,1.982775
1606526457.127412,112.000000,0.000000,4286.153809,4096.410156,4240.769043,4306.794922,4223.077148,4238.077148,4209.487305,4189.487305,4196.410156,4200.256348,4238.846191,4266.538574,3978.718018,4369.230957,3468.000000,2.000000,,,,0.000000,4.000000,4.000000,4.000000,4.000000,4.000000,4.000000,4.000000,4.000000,4.000000,4.000000,4.000000,4.000000,4.000000,4.000000,100.000000,28.000000,0.000000,0.492891,0.666199,-0.524536,-0.195190,-3.999939,3.999939,-3.999939,-38.730450,-122.023346,9.271381,,,,,,,,,,,,,,,,,,,,,,,,,,,,,,,,,,,,,,,,,,,,,,,,,,,,,,,,,,,,,,,,,,,,,,,,,,,,,,,,,,,,,,,,,,,,,,,,,,,,,
1606526457.135108,113.000000,0.000000,4289.230957,4082.692383,4247.820313,4301.025879,4218.077148,4234.230957,4190.641113,4205.897461,4203.205078,4190.641113,4231.153809,4262.051270,3993.974365,4371.025879,3182.000000,2.000000,,,,0.000000,4.000000,4.000000,4.000000,4.000000,4.000000,4.000000,4.000000,4.000000,4.000000,4.000000,4.000000,4.000000,4.000000,4.000000,100.000000,,,,,,,,,,,,,,,,,,,,,,,,,,,,,,,,,,,,,,,,,,,,,,,,,,,,,,,,,,,,,,,,,,,,,,,,,,,,,,,,,,,,,,,,,,,,,,,,,,,,,,,,,,,,,,,,,
1606526457.143004,114.000000,0.000000,4308.461426,4096.922852,4263.846191,4322.692383,4226.153809,4246.922852,4209.871582,4224.358887,4223.846191,4207.948730,4250.769043,4277.692383,3996.538574,4389.358887,3455.000000,2.000000,,,,0.000000,4.000000,4.000000,4.000000,4.000000,4.000000,4.000000,4.000000,4.000000,4.000000,4.000000,4.000000,4.000000,4.000000,4.000000,100.000000,,,,,,,,,,,,,,,,,,,,,,,,,,,,,,,,,,,,,,,,,,,,,,,,,,,,,,,,,,,,,,,,,,,,,,,,,,,,,,,,,,,,,,,,,,,,,,,,,,,,,,,,,,,,,,,,,
1606526457.150999,115.000000,0.000000,4290.384766,4099.102539,4252.051270,4322.692383,4235.769043,4246.538574,4223.974121,4217.179688,4227.820313,4224.871582,4248.333496,4269.358887,3978.205078,4371.666504,3471.000000,2.000000,,,,0.000000,4.000000,4.000000,4.000000,4.000000,4.000000,4.000000,4.000000,4.000000,4.000000,4.000000,4.000000,4.000000,4.000000,4.000000,100.000000,,,,,,,,,,,,,,,,,,,,,,,,,,,,,,,,,,,,,,,,,,,,,,,,,,,,,,,,,,,,,,,,,,,,,,,,,,,,,,,,,,,,,,,,,,,,,,,,,,,,,,,,,,,,,,,,,
1606526457.158895,116.000000,0.000000,4266.922852,4063.076904,4234.615234,4284.743652,4215.128418,4237.820313,4207.563965,4202.051270,4210.769043,4215.000000,4222.436035,4256.794922,3950.256348,4337.051270,3468.000000,2.000000,,,,0.000000,4.000000,4.000000,4.000000,4.000000,4.000000,4.000000,4.000000,4.000000,4.000000,4.000000,4.000000,4.000000,4.000000,4.000000,100.000000,29.000000,0.000000,0.487188,0.666992,-0.527771,-0.198059,-3.999939,3.999939,-3.999939,-35.291065,-122.920578,10.617228,,,,,,,,,,,,,,,,,,,,,,,,,,,,,,,,,,,,,,,,,,,,,,,,,,,,,,,,,,,,,,,,,,,,,,,,,,,,,,,,,,,,,,,,,,,,,,,,,,,,,
1606526457.166791,117.000000,0.000000,4263.205078,4043.846191,4239.358887,4269.743652,4205.769043,4237.307617,4204.102539,4202.948730,4208.846191,4196.410156,4221.025879,4257.692383,3944.615479,4332.436035,3182.000000,2.000000,,,,0.000000,4.000000,4.000000,4.000000,4.000000,4.000000,4.000000,4.000000,4.000000,4.000000,4.000000,4.000000,4.000000,4.000000,4.000000,100.000000,,,,,,,,,,,,,,,,,,,,,,,,,,,,,,,,,,,,,,,,,,,,,,,,,,,,,,,,,,,,,,,,,,,,,,,,,,,,,,,,,,,,,,,,,,,,,,,,,,,,,,,,,,,,,,,,,
1606526457.174686,118.000000,0.000000,4280.000000,4053.076904,4262.820313,4295.384766,4228.205078,4256.538574,4226.153809,4222.820313,4228.846191,4207.692383,4239.358887,4268.461426,3961.281982,4346.922852,3455.000000,2.000000,,,,0.000000,4.000000,4.000000,4.000000,4.000000,4.000000,4.000000,4.000000,4.000000,4.000000,4.000000,4.000000,4.000000,4.000000,4.000000,100.000000,,,,,,,,,,,,,,,,,,,,,,,,,,,,,,,,,,,,,,,,,,,,,,,,,,,,,,,,,,,,,,,,,,,,,,,,,,,,,,,,,,,,,,,,,,,,,,,,,,,,,,,,,,,,,,,,,
1606526457.182682,119.000000,0.000000,4263.461426,4049.871826,4255.256348,4298.974121,4228.077148,4252.820313,4225.128418,4217.179688,4229.871582,4231.666504,4237.436035,4256.666504,3965.512939,4341.666504,3471.000000,2.000000,,,,0.000000,4.000000,4.000000,4.000000,4.000000,4.000000,4.000000,4.000000,4.000000,4.000000,4.000000,4.000000,4.000000,4.000000,4.000000,100.000000,,,,,,,,,,,,,,,,,,,,,,,,,,,,,,,,,,,,,,,,,,,,,,,,,,,,,,,,,,,,,,,,,,,,,,,,,,,,,,,,,,,,,,,,,,,,,,,,,,,,,,,,,,,,,,,,,
1606526457.190578,120.000000,0.000000,4242.051270,4020.128174,4231.153809,4271.153809,4194.871582,4247.307617,4203.205078,4194.615234,4207.051270,4222.307617,4210.256348,4243.205078,3944.871826,4317.436035,3468.000000,2.000000,,,,0.000000,4.000000,4.000000,4.000000,4.000000,4.000000,4.000000,4.000000,4.000000,4.000000,4.000000,4.000000,4.000000,4.000000,4.000000,100.000000,30.000000,0.000000,0.481448,0.667480,-0.531555,-0.200317,-3.999939,3.999939,-3.999939,-36.487373,-122.172882,10.318151,,,,,,,,,,,,,,,,,,,,,,,,,,,,,,,,,,,,,,,,,,,,,,,,,,,,,,,,,,,,,,,,,,,,,,,,,,,,,,,,,,,,,,,,,,,,,,,,,,,,,
1606526457.198274,121.000000,0.000000,4260.128418,4030.384521,4251.153809,4290.384766,4211.282227,4265.512695,4205.384766,4226.410156,4231.282227,4236.922852,4234.102539,4269.102539,3966.153809,4333.205078,3182.000000,2.000000,,,,0.000000,4.000000,4.000000,4.000000,4.000000,4.000000,4.000000,4.000000,4.000000,4.000000,4.000000,4.000000,4.000000,4.000000,4.000000,100.000000,,,,,,,,,,,,,,,,,,,,,,,,,,,,,,,,,,,,,,,,,,,,,,,,,,,,,,,,,,,,,,,,,,,,,,,,,,,,,,,,,,,,,,,,,,,,,,,,,,,,,,,,,,,,,,,,,
1606526457.205970,122.000000,0.000000,4278.846191,4058.076904,4276.282227,4316.025879,4243.333496,4284.102539,4232.948730,4260.769043,4262.563965,4265.384766,4265.256348,4288.974121,3997.820557,4356.282227,3455.000000,2.000000,,,,0.000000,4.000000,4.000000,4.000000,4.000000,4.000000,4.000000,4.000000,4.000000,4.000000,4.000000,4.000000,4.000000,4.000000,4.000000,100.000000,,,,,,,,,,,,,,,,,,,,,,,,,,,,,,,,,,,,,,,,,,,,,,,,,,,,,,,,,,,,,,,,,,,,,,,,,,,,,,,,,,,,,,,,,,,,,,,,,,,,,,,,,,,,,,,,,
1606526457.213765,123.000000,0.000000,4236.025879,4024.102539,4237.179688,4272.820313,4215.128418,4260.000000,4237.563965,4226.410156,4228.077148,4228.077148,4221.282227,4248.461426,3961.923096,4322.307617,3471.000000,2.000000,,,,0.000000,4.000000,4.000000,4.000000,4.000000,4.000000,4.000000,4.000000,4.000000,4.000000,4.000000,4.000000,4.000000,4.000000,4.000000,100.000000,,,,,,,,,,,,,,,,,,,,,,,,,,,,,,,,,,,,,,,,,,,,,,,,,,,,,,,,,,,,,,,,,,,,,,,,,,,,,,,,,,,,,,,,,,,,,,,,,,,,,,,,,,,,,,,,,
1606526457.221661,124.000000,0.000000,4199.743652,3979.871826,4193.717773,4226.282227,4175.384766,4238.077148,4200.384766,4183.589844,4180.000000,4177.820313,4166.538574,4207.436035,3915.128174,4277.948730,3468.000000,2.000000,,,,0.000000,4.000000,4.000000,4.000000,4.000000,4.000000,4.000000,4.000000,4.000000,4.000000,4.000000,4.000000,4.000000,4.000000,4.000000,100.000000,31.000000,0.000000,0.476149,0.667969,-0.535217,-0.201599,-3.999939,3.999939,-3.999939,-37.085526,-121.574730,8.224613,,,,,,,,,,,,,,,,,,,,,,,,,,,,,,,,,,,,,,,,,,,,,,,,,,,,,,,,,,,,,,,,,,,,,,,,,,,,,,,,,,,,,,,,,,,,,,,,,,,,,
1606526457.229557,125.000000,0.000000,4209.102539,3996.794922,4198.717773,4241.794922,4181.538574,4250.384766,4180.384766,4185.512695,4183.846191,4187.820313,4170.384766,4205.512695,3915.769287,4270.897461,3182.000000,2.000000,,,,0.000000,4.000000,4.000000,4.000000,4.000000,4.000000,4.000000,4.000000,4.000000,4.000000,4.000000,4.000000,4.000000,4.000000,4.000000,100.000000,,,,,,,,,,,,,,,,,,,,,,,,,,,,,,,,,,,,,,,,,,,,,,,,,,,,,,,,,,,,,,,,,,,,,,,,,,,,,,,,,,,,,,,,,,,,,,,,,,,,,,,,,,,,,,,,,
1606526457.237253,126.000000,0.000000,4222.436035,4016.153809,4206.282227,4255.641113,4196.153809,4263.846191,4193.461426,4195.128418,4213.717773,4201.794922,4191.282227,4214.487305,3927.051270,4275.512695,3455.000000,2.000000,,,,0.000000,4.000000,4.000000,4.000000,4.000000,4.000000,4.000000,4.000000,4.000000,4.000000,4.000000,4.000000,4.000000,4.000000,4.000000,100.000000,,,,,,,,,,,,,,,,,,,,,,,,,,,,,,,,,,,,,,,,,,,,,,,,,,,,,,,,,,,,,,,,,,,,,,,,,,,,,,,,,,,,,,,,,,,,,,,,,,,,,,,,,,,,,,,,,
1606526457.245049,127.000000,0.000000,4230.128418,4000.897461,4202.563965,4242.820313,4191.922852,4261.410156,4202.051270,4200.384766,4228.589844,4199.743652,4197.179688,4227.563965,3935.256348,4280.128418,51.000000,2.000000,,,,0.000000,4.000000,4.000000,4.000000,4.000000,4.000000,4.000000,4.000000,4.000000,4.000000,4.000000,4.000000,4.000000,4.000000,4.000000,100.000000,,,,,,,,,,,,,,,,,,,,,,,,,,,,,,,,,,,,,,,,,,,,7.365933,3.744175,3.556020,1.897335,1.487980,80.284332,12.883683,13.190862,3.569566,3.218524,5.589988,4.675463,2.789307,2.137031,1.612799,8.899322,2.587759,1.921191,2.120856,2.780318,2.395949,2.179015,1.213044,4.188576,1.994002,4.616567,5.932471,3.093285,1.807157,1.357586,22.343172,4.677026,5.685471,3.479575,2.515828,6.935829,1.715822,4.100882,2.759036,1.875208,5.801117,2.919096,4.743994,5.403295,2.711628,13.114496,3.547086,4.911430,4.632398,4.242104,20.683222,4.575510,3.337843,2.785215,2.008998,5.547700,2.998668,3.334734,2.132434,1.881480,54.564682,12.792828,11.995049,3.436628,1.926706,4.786583,9.920623,4.525040,2.693930,1.830407
1606526457.252944,0.000000,0.000000,4236.282227,4005.000000,4204.871582,4248.974121,4187.948730,4254.358887,4192.563965,4205.769043,4227.051270,4216.282227,4200.512695,4233.333496,3941.538574,4285.897461,3312.000000,2.000000,,,,0.000000,4.000000,4.000000,4.000000,4.000000,4.000000,4.000000,4.000000,4.000000,4.000000,4.000000,4.000000,4.000000,4.000000,4.000000,100.000000,0.000000,0.000000,0.444516,0.144653,-0.811523,-0.350586,-3.999939,3.999939,-3.999939,-38.281834,-120.527962,10.019073,,,,,,,,,,,,,,,,,,,,,,,,,,,,,,,,,,,,,,,,,,,,,,,,,,,,,,,,,,,,,,,,,,,,,,,,,,,,,,,,,,,,,,,,,,,,,,,,,,,,,
1606526457.260840,1.000000,0.000000,4234.615234,4016.923096,4204.230957,4248.589844,4181.282227,4248.333496,4182.307617,4197.179688,4215.769043,4222.692383,4196.410156,4224.102539,3929.615479,4282.307617,3459.000000,2.000000,,,,0.000000,4.000000,4.000000,4.000000,4.000000,4.000000,4.000000,4.000000,4.000000,4.000000,4.000000,4.000000,4.000000,4.000000,4.000000,100.000000,,,,,,,,,,,,,,,,,,,,,,,,,,,,,,,,,,,,,,,,,,,,,,,,,,,,,,,,,,,,,,,,,,,,,,,,,,,,,,,,,,,,,,,,,,,,,,,,,,,,,,,,,,,,,,,,,
1606526457.268736,2.000000,0.000000,4227.820313,4011.410156,4203.461426,4233.589844,4182.948730,4249.487305,4185.128418,4195.384766,4212.948730,4218.846191,4196.410156,4227.436035,3925.384521,4283.846191,3169.000000,2.000000,,,,0.000000,4.000000,4.000000,4.000000,4.000000,4.000000,4.000000,4.000000,4.000000,4.000000,4.000000,4.000000,4.000000,4.000000,4.000000,100.000000,,,,,,,,,,,,,,,,,,,,,,,,,,,,,,,,,,,,,,,,,,,,,,,,,,,,,,,,,,,,,,,,,,,,,,,,,,,,,,,,,,,,,,,,,,,,,,,,,,,,,,,,,,,,,,,,,
1606526457.276731,3.000000,0.000000,4242.051270,4013.333252,4223.205078,4247.436035,4201.153809,4265.512695,4200.256348,4209.743652,4217.436035,4224.230957,4191.025879,4247.051270,3942.692383,4283.974121,3582.000000,2.000000,,,,0.000000,4.000000,4.000000,4.000000,4.000000,4.000000,4.000000,4.000000,4.000000,4.000000,4.000000,4.000000,4.000000,4.000000,4.000000,100.000000,,,,,,,,,,,,,,,,,,,,,,,,,,,,,,,,,,,,,,,,,,,,,,,,,,,,,,,,,,,,,,,,,,,,,,,,,,,,,,,,,,,,,,,,,,,,,,,,,,,,,,,,,,,,,,,,,
1606526457.284627,4.000000,0.000000,4224.871582,4018.718018,4213.846191,4255.897461,4199.871582,4252.820313,4195.384766,4197.948730,4200.512695,4219.615234,4180.897461,4232.436035,3945.512939,4272.179688,3549.000000,2.000000,,,,0.000000,4.000000,4.000000,4.000000,4.000000,4.000000,4.000000,4.000000,4.000000,4.000000,4.000000,4.000000,4.000000,4.000000,4.000000,100.000000,1.000000,0.000000,0.450712,0.141541,-0.809204,-0.349304,-3.999939,3.999939,-3.999939,-37.534142,-119.780273,10.019073,,,,,,,,,,,,,,,,,,,,,,,,,,,,,,,,,,,,,,,,,,,,,,,,,,,,,,,,,,,,,,,,,,,,,,,,,,,,,,,,,,,,,,,,,,,,,,,,,,,,,
1606526457.292323,5.000000,0.000000,4216.666504,4018.461426,4191.153809,4234.358887,4187.179688,4236.282227,4158.974121,4180.000000,4186.538574,4206.153809,4194.358887,4218.974121,3940.512939,4274.487305,2156.000000,2.000000,,,,0.000000,4.000000,4.000000,4.000000,4.000000,4.000000,4.000000,4.000000,4.000000,4.000000,4.000000,4.000000,4.000000,4.000000,4.000000,100.000000,,,,,,,,,,,,,,,,,,,,,,,,,,,,,,,,,,,,,,,,,,,,,,,,,,,,,,,,,,,,,,,,,,,,,,,,,,,,,,,,,,,,,,,,,,,,,,,,,,,,,,,,,,,,,,,,,
1606526457.300019,6.000000,0.000000,4227.563965,4024.487061,4196.410156,4232.051270,4202.307617,4245.256348,4156.410156,4188.461426,4208.846191,4207.692383,4207.051270,4225.128418,3953.076904,4281.025879,3355.000000,2.000000,,,,0.000000,4.000000,4.000000,4.000000,4.000000,4.000000,4.000000,4.000000,4.000000,4.000000,4.000000,4.000000,4.000000,4.000000,4.000000,100.000000,,,,,,,,,,,,,,,,,,,,,,,,,,,,,,,,,,,,,,,,,,,,,,,,,,,,,,,,,,,,,,,,,,,,,,,,,,,,,,,,,,,,,,,,,,,,,,,,,,,,,,,,,,,,,,,,,
1606526457.307815,7.000000,0.000000,4226.410156,4019.615479,4206.025879,4238.461426,4205.256348,4256.025879,4182.948730,4184.487305,4210.128418,4193.205078,4189.487305,4224.102539,3955.641113,4266.666504,3231.000000,2.000000,,,,0.000000,4.000000,4.000000,4.000000,4.000000,4.000000,4.000000,4.000000,4.000000,4.000000,4.000000,4.000000,4.000000,4.000000,4.000000,100.000000,,,,,,,,,,,,,,,,,,,,,,,,,,,,,,,,,,,,,,,,,,,,,,,,,,,,,,,,,,,,,,,,,,,,,,,,,,,,,,,,,,,,,,,,,,,,,,,,,,,,,,,,,,,,,,,,,
1606526457.315511,8.000000,0.000000,4205.512695,4020.128174,4195.384766,4233.333496,4188.846191,4232.820313,4177.820313,4165.769043,4188.205078,4198.461426,4190.641113,4214.743652,3952.820557,4259.615234,3263.000000,2.000000,,,,0.000000,4.000000,4.000000,4.000000,4.000000,4.000000,4.000000,4.000000,4.000000,4.000000,4.000000,4.000000,4.000000,4.000000,4.000000,100.000000,2.000000,0.000000,0.453496,0.139526,-0.808472,-0.348206,-3.999939,3.999939,-3.999939,-36.038757,-123.668266,9.570458,,,,,,,,,,,,,,,,,,,,,,,,,,,,,,,,,,,,,,,,,,,,,,,,,,,,,,,,,,,,,,,,,,,,,,,,,,,,,,,,,,,,,,,,,,,,,,,,,,,,,
1606526457.323206,9.000000,0.000000,4215.256348,4033.589844,4188.333496,4231.153809,4187.436035,4219.615234,4155.769043,4164.358887,4188.205078,4221.538574,4210.256348,4221.025879,3950.384521,4265.897461,3570.000000,2.000000,,,,0.000000,4.000000,4.000000,4.000000,4.000000,4.000000,4.000000,4.000000,4.000000,4.000000,4.000000,4.000000,4.000000,4.000000,4.000000,100.000000,,,,,,,,,,,,,,,,,,,,,,,,,,,,,,,,,,,,,,,,,,,,,,,,,,,,,,,,,,,,,,,,,,,,,,,,,,,,,,,,,,,,,,,,,,,,,,,,,,,,,,,,,,,,,,,,,
1606526457.330902,10.000000,0.000000,4222.820313,4041.281982,4186.922852,4234.102539,4196.794922,4226.153809,4161.282227,4165.769043,4199.230957,4217.948730,4196.025879,4213.461426,3948.076904,4262.692383,3466.000000,2.000000,,,,0.000000,4.000000,4.000000,4.000000,4.000000,4.000000,4.000000,4.000000,4.000000,4.000000,4.000000,4.000000,4.000000,4.000000,4.000000,100.000000,,,,,,,,,,,,,,,,,,,,,,,,,,,,,,,,,,,,,,,,,,,,,,,,,,,,,,,,,,,,,,,,,,,,,,,,,,,,,,,,,,,,,,,,,,,,,,,,,,,,,,,,,,,,,,,,,
1606526457.338698,11.000000,0.000000,4216.922852,4039.230713,4183.589844,4226.282227,4186.153809,4227.692383,4163.717773,4160.769043,4187.948730,4208.974121,4167.563965,4196.666504,3947.820557,4255.000000,3498.000000,2.000000,,,,0.000000,4.000000,4.000000,4.000000,4.000000,4.000000,4.000000,4.000000,4.000000,4.000000,4.000000,4.000000,4.000000,4.000000,4.000000,100.000000,,,,,,,,,,,,,,,,,,,,,,,,,,,,,,,,,,,,,,,,,,,,,,,,,,,,,,,,,,,,,,,,,,,,,,,,,,,,,,,,,,,,,,,,,,,,,,,,,,,,,,,,,,,,,,,,,
1606526457.346394,12.000000,0.000000,4224.358887,4055.641113,4191.538574,4231.794922,4183.461426,4216.410156,4158.205078,4173.589844,4191.410156,4219.743652,4187.307617,4210.000000,3965.641113,4264.102539,3455.000000,2.000000,,,,0.000000,4.000000,4.000000,4.000000,4.000000,4.000000,4.000000,4.000000,4.000000,4.000000,4.000000,4.000000,4.000000,4.000000,4.000000,100.000000,3.000000,0.000000,0.459922,0.136902,-0.806335,-0.345764,-3.999939,3.999939,-3.999939,-36.935989,-122.172882,12.262150,,,,,,,,,,,,,,,,,,,,,,,,,,,,,,,,,,,,,,,,,,,,,,,,,,,,,,,,,,,,,,,,,,,,,,,,,,,,,,,,,,,,,,,,,,,,,,,,,,,,,
1606526457.354290,13.000000,0.000000,4228.205078,4069.487061,4202.820313,4246.282227,4192.563965,4226.794922,4180.000000,4181.666504,4204.358887,4211.538574,4205.769043,4223.974121,3980.769287,4274.230957,3165.000000,2.000000,,,,0.000000,4.000000,4.000000,4.000000,4.000000,4.000000,4.000000,4.000000,4.000000,4.000000,4.000000,4.000000,4.000000,4.000000,4.000000,100.000000,,,,,,,,,,,,,,,,,,,,,,,,,,,,,,,,,,,,,,,,,,,,,,,,,,,,,,,,,,,,,,,,,,,,,,,,,,,,,,,,,,,,,,,,,,,,,,,,,,,,,,,,,,,,,,,,,
1606526457.362186,14.000000,0.000000,4225.512695,4073.589844,4202.307617,4243.717773,4187.948730,4235.641113,4187.436035,4169.102539,4194.487305,4197.692383,4179.102539,4212.179688,3976.410156,4275.256348,3466.000000,2.000000,,,,0.000000,4.000000,4.000000,4.000000,4.000000,4.000000,4.000000,4.000000,4.000000,4.000000,4.000000,4.000000,4.000000,4.000000,4.000000,100.000000,,,,,,,,,,,,,,,,,,,,,,,,,,,,,,,,,,,,,,,,,,,,,,,,,,,,,,,,,,,,,,,,,,,,,,,,,,,,,,,,,,,,,,,,,,,,,,,,,,,,,,,,,,,,,,,,,
1606526457.370181,15.000000,0.000000,4239.230957,4101.153809,4198.333496,4239.615234,4177.692383,4218.205078,4157.948730,4160.256348,4178.846191,4204.615234,4173.589844,4206.282227,3986.281982,4285.128418,3498.000000,2.000000,,,,0.000000,4.000000,4.000000,4.000000,4.000000,4.000000,4.000000,4.000000,4.000000,4.000000,4.000000,4.000000,4.000000,4.000000,4.000000,100.000000,,,,,,,,,,,,,,,,,,,,,,,,,,,,,,,,,,,,,,,,,,,,7.549767,4.315118,3.960500,1.648029,1.329934,77.214645,13.442026,13.427305,3.244589,2.762384,5.933794,5.139079,3.056878,1.654622,1.384597,8.823424,2.675323,2.175176,1.650767,2.508162,2.108981,2.497150,1.231386,3.393701,1.599097,4.454408,5.842611,3.464023,1.490850,1.118323,20.648167,4.746478,5.431420,2.830503,2.269439,7.908847,1.911203,4.125351,2.453447,1.733264,6.036214,2.644662,4.731146,4.956926,2.494742,13.142400,3.037903,4.890370,3.881975,4.187461,19.437510,4.832726,3.733251,2.409991,1.771669,5.882881,3.279908,3.955303,1.742815,1.588780,50.303806,13.415370,11.536227,3.186092,1.828455,5.906791,11.638644,5.682207,2.494162,1.652715
1606526457.378077,16.000000,0.000000,4283.846191,4162.051270,4227.948730,4276.666504,4197.436035,4228.846191,4166.025879,4178.333496,4183.461426,4220.128418,4226.153809,4251.666504,4026.281982,4330.897461,0.000000,2.000000,,,,0.000000,4.000000,4.000000,4.000000,4.000000,4.000000,4.000000,4.000000,4.000000,4.000000,4.000000,4.000000,4.000000,4.000000,4.000000,100.000000,4.000000,0.000000,0.475606,0.130249,-0.800110,-0.341553,-3.999939,3.999939,-3.999939,-36.038757,-121.425194,9.570458,,,,,,,,,,,,,,,,,,,,,,,,,,,,,,,,,,,,,,,,,,,,,,,,,,,,,,,,,,,,,,,,,,,,,,,,,,,,,,,,,,,,,,,,,,,,,,,,,,,,,
1606526457.385773,17.000000,0.000000,4306.410156,4203.205078,4265.512695,4314.743652,4229.230957,4266.666504,4204.743652,4193.205078,4198.974121,4234.230957,4261.794922,4297.307617,4057.948730,4380.128418,0.000000,2.000000,,,,0.000000,4.000000,4.000000,4.000000,4.000000,4.000000,4.000000,4.000000,4.000000,4.000000,4.000000,4.000000,4.000000,4.000000,4.000000,100.000000,,,,,,,,,,,,,,,,,,,,,,,,,,,,,,,,,,,,,,,,,,,,,,,,,,,,,,,,,,,,,,,,,,,,,,,,,,,,,,,,,,,,,,,,,,,,,,,,,,,,,,,,,,,,,,,,,
1606526457.393469,18.000000,0.000000,4296.410156,4178.205078,4260.384766,4281.666504,4221.410156,4269.102539,4202.307617,4185.128418,4201.922852,4229.102539,4245.256348,4289.743652,4060.128174,4378.589844,0.000000,2.000000,,,,0.000000,4.000000,4.000000,4.000000,4.000000,4.000000,4.000000,4.000000,4.000000,4.000000,4.000000,4.000000,4.000000,4.000000,4.000000,100.000000,,,,,,,,,,,,,,,,,,,,,,,,,,,,,,,,,,,,,,,,,,,,,,,,,,,,,,,,,,,,,,,,,,,,,,,,,,,,,,,,,,,,,,,,,,,,,,,,,,,,,,,,,,,,,,,,,
1606526457.401464,19.000000,0.000000,4275.128418,4164.615234,4226.666504,4248.589844,4185.256348,4229.102539,4167.948730,4173.461426,4193.717773,4219.615234,4222.692383,4255.641113,4054.487061,4350.000000,0.000000,2.000000,,,,0.000000,4.000000,4.000000,4.000000,4.000000,4.000000,4.000000,4.000000,4.000000,4.000000,4.000000,4.000000,4.000000,4.000000,4.000000,100.000000,,,,,,,,,,,,,,,,,,,,,,,,,,,,,,,,,,,,,,,,,,,,,,,,,,,,,,,,,,,,,,,,,,,,,,,,,,,,,,,,,,,,,,,,,,,,,,,,,,,,,,,,,,,,,,,,,
1606526457.409360,20.000000,0.000000,4287.307617,4217.692383,4223.974121,4285.256348,4170.384766,4221.410156,4153.333496,4170.000000,4183.461426,4214.871582,4217.948730,4251.025879,4056.666748,4348.333496,0.000000,2.000000,,,,0.000000,4.000000,4.000000,4.000000,4.000000,4.000000,4.000000,4.000000,4.000000,4.000000,4.000000,4.000000,4.000000,4.000000,4.000000,100.000000,5.000000,0.000000,0.490527,0.122314,-0.793884,-0.337891,-3.999939,3.999939,-3.999939,-36.487373,-121.873810,11.364920,,,,,,,,,,,,,,,,,,,,,,,,,,,,,,,,,,,,,,,,,,,,,,,,,,,,,,,,,,,,,,,,,,,,,,,,,,,,,,,,,,,,,,,,,,,,,,,,,,,,,
1606526457.417256,21.000000,0.000000,4293.717773,4255.256348,4232.436035,4315.384766,4177.179688,4226.025879,4151.794922,4166.025879,4182.820313,4205.128418,4227.051270,4255.000000,4068.205078,4364.615234,0.000000,2.000000,,,,0.000000,4.000000,4.000000,4.000000,4.000000,4.000000,4.000000,4.000000,4.000000,4.000000,4.000000,4.000000,4.000000,4.000000,4.000000,100.000000,,,,,,,,,,,,,,,,,,,,,,,,,,,,,,,,,,,,,,,,,,,,,,,,,,,,,,,,,,,,,,,,,,,,,,,,,,,,,,,,,,,,,,,,,,,,,,,,,,,,,,,,,,,,,,,,,
1606526457.424952,22.000000,0.000000,4290.769043,4228.974121,4232.820313,4293.333496,4173.333496,4225.128418,4149.358887,4171.025879,4186.922852,4191.666504,4231.538574,4257.051270,4071.025635,4359.230957,0.000000,2.000000,,,,0.000000,4.000000,4.000000,4.000000,4.000000,4.000000,4.000000,4.000000,4.000000,4.000000,4.000000,4.000000,4.000000,4.000000,4.000000,100.000000,,,,,,,,,,,,,,,,,,,,,,,,,,,,,,,,,,,,,,,,,,,,,,,,,,,,,,,,,,,,,,,,,,,,,,,,,,,,,,,,,,,,,,,,,,,,,,,,,,,,,,,,,,,,,,,,,
1606526457.432747,23.000000,0.000000,4293.077148,4217.948730,4239.102539,4291.410156,4190.769043,4229.358887,4167.051270,4198.205078,4201.282227,4197.436035,4237.692383,4276.282227,4060.256348,4359.102539,0.000000,2.000000,,,,0.000000,4.000000,4.000000,4.000000,4.000000,4.000000,4.000000,4.000000,4.000000,4.000000,4.000000,4.000000,4.000000,4.000000,4.000000,100.000000,,,,,,,,,,,,,,,,,,,,,,,,,,,,,,,,,,,,,,,,,,,,,,,,,,,,,,,,,,,,,,,,,,,,,,,,,,,,,,,,,,,,,,,,,,,,,,,,,,,,,,,,,,,,,,,,,
1606526457.440443,24.000000,0.000000,4300.769043,4232.051270,4244.230957,4298.846191,4208.974121,4239.871582,4183.077148,4207.820313,4208.461426,4198.077148,4238.205078,4290.641113,4046.025635,4367.948730,0.000000,2.000000,,,,0.000000,4.000000,4.000000,4.000000,4.000000,4.000000,4.000000,4.000000,4.000000,4.000000,4.000000,4.000000,4.000000,4.000000,4.000000,100.000000,6.000000,0.000000,0.495569,0.118103,-0.792114,-0.336182,-3.999939,3.999939,-3.999939,-37.384605,-121.425194,10.318151,,,,,,,,,,,,,,,,,,,,,,,,,,,,,,,,,,,,,,,,,,,,,,,,,,,,,,,,,,,,,,,,,,,,,,,,,,,,,,,,,,,,,,,,,,,,,,,,,,,,,
1606526457.448139,25.000000,0.000000,4289.487305,4226.025879,4237.820313,4285.000000,4193.717773,4231.282227,4177.563965,4192.179688,4199.230957,4196.922852,4234.102539,4272.820313,4055.000000,4357.820313,0.000000,2.000000,,,,0.000000,4.000000,4.000000,4.000000,4.000000,4.000000,4.000000,4.000000,4.000000,4.000000,4.000000,4.000000,4.000000,4.000000,4.000000,100.000000,,,,,,,,,,,,,,,,,,,,,,,,,,,,,,,,,,,,,,,,,,,,,,,,,,,,,,,,,,,,,,,,,,,,,,,,,,,,,,,,,,,,,,,,,,,,,,,,,,,,,,,,,,,,,,,,,
1606526457.455835,26.000000,0.000000,4283.717773,4210.897461,4236.794922,4281.666504,4174.487305,4222.948730,4166.282227,4175.512695,4180.769043,4193.846191,4227.051270,4260.384766,4063.205078,4343.333496,0.000000,2.000000,,,,0.000000,4.000000,4.000000,4.000000,4.000000,4.000000,4.000000,4.000000,4.000000,4.000000,4.000000,4.000000,4.000000,4.000000,4.000000,100.000000,,,,,,,,,,,,,,,,,,,,,,,,,,,,,,,,,,,,,,,,,,,,,,,,,,,,,,,,,,,,,,,,,,,,,,,,,,,,,,,,,,,,,,,,,,,,,,,,,,,,,,,,,,,,,,,,,
1606526457.463631,27.000000,0.000000,4285.769043,4218.589844,4237.563965,4281.922852,4181.922852,4218.461426,4164.358887,4183.846191,4186.794922,4185.641113,4227.692383,4267.820313,4054.615479,4349.487305,0.000000,2.000000,,,,0.000000,4.000000,4.000000,4.000000,4.000000,4.000000,4.000000,4.000000,4.000000,4.000000,4.000000,4.000000,4.000000,4.000000,4.000000,100.000000,,,,,,,,,,,,,,,,,,,,,,,,,,,,,,,,,,,,,,,,,,,,,,,,,,,,,,,,,,,,,,,,,,,,,,,,,,,,,,,,,,,,,,,,,,,,,,,,,,,,,,,,,,,,,,,,,
1606526457.471327,28.000000,0.000000,4277.820313,4212.692383,4229.871582,4266.794922,4180.512695,4204.230957,4160.897461,4192.307617,4200.384766,4190.512695,4227.179688,4261.666504,4044.102539,4353.333496,0.000000,2.000000,,,,0.000000,4.000000,4.000000,4.000000,4.000000,4.000000,4.000000,4.000000,4.000000,4.000000,4.000000,4.000000,4.000000,4.000000,4.000000,100.000000,7.000000,0.000000,0.495183,0.117310,-0.792603,-0.335876,-3.999939,3.999939,-3.999939,-36.786449,-119.331657,13.159381,,,,,,,,,,,,,,,,,,,,,,,,,,,,,,,,,,,,,,,,,,,,,,,,,,,,,,,,,,,,,,,,,,,,,,,,,,,,,,,,,,,,,,,,,,,,,,,,,,,,,
1606526457.479023,29.000000,0.000000,4266.538574,4197.307617,4218.717773,4269.743652,4172.051270,4193.846191,4162.692383,4172.692383,4187.820313,4190.641113,4225.769043,4241.922852,4044.102539,4339.871582,0.000000,2.000000,,,,0.000000,4.000000,4.000000,4.000000,4.000000,4.000000,4.000000,4.000000,4.000000,4.000000,4.000000,4.000000,4.000000,4.000000,4.000000,100.000000,,,,,,,,,,,,,,,,,,,,,,,,,,,,,,,,,,,,,,,,,,,,,,,,,,,,,,,,,,,,,,,,,,,,,,,,,,,,,,,,,,,,,,,,,,,,,,,,,,,,,,,,,,,,,,,,,
1606526457.486719,30.000000,0.000000,4276.666504,4215.641113,4223.333496,4287.563965,4192.051270,4215.256348,4166.282227,4169.358887,4180.512695,4173.461426,4236.282227,4252.820313,4054.487061,4341.410156,0.000000,2.000000,,,,0.000000,4.000000,4.000000,4.000000,4.000000,4.000000,4.000000,4.000000,4.000000,4.000000,4.000000,4.000000,4.000000,4.000000,4.000000,100.000000,,,,,,,,,,,,,,,,,,,,,,,,,,,,,,,,,,,,,,,,,,,,,,,,,,,,,,,,,,,,,,,,,,,,,,,,,,,,,,,,,,,,,,,,,,,,,,,,,,,,,,,,,,,,,,,,,
1606526457.494515,31.000000,0.000000,4287.563965,4213.974121,4235.897461,4270.769043,4203.717773,4226.666504,4157.179688,4188.589844,4187.948730,4164.487305,4235.384766,4273.717773,4046.923096,4344.871582,0.000000,2.000000,,,,0.000000,4.000000,4.000000,4.000000,4.000000,4.000000,4.000000,4.000000,4.000000,4.000000,4.000000,4.000000,4.000000,4.000000,4.000000,100.000000,,,,,,,,,,,,,,,,,,,,,,,,,,,,,,,,,,,,,,,,,,,,7.506127,4.795611,4.128220,1.438322,1.180409,70.043556,13.465374,12.313493,2.897242,2.341795,5.715270,5.252832,3.210370,1.266649,1.155938,8.304669,2.934218,2.385664,1.279038,2.188058,1.775374,2.654888,1.300625,2.585420,1.288240,4.051353,5.155209,3.541446,1.193149,0.904533,16.565805,4.539063,4.786973,2.278055,2.022631,8.435751,2.286224,3.959548,2.134784,1.578704,5.700362,2.424199,4.336581,4.217682,2.224954,11.640030,2.756800,4.494407,3.222757,3.963294,15.615027,4.830636,4.032280,2.173733,1.548084,5.652898,3.511380,4.471223,1.468881,1.316917,39.168118,12.613979,9.735740,2.794134,1.680004,7.548706,12.584457,6.559518,2.329132,1.475572
1606526457.502410,32.000000,0.000000,4275.641113,4182.307617,4233.974121,4253.717773,4190.000000,4211.153809,4160.000000,4187.051270,4187.307617,4176.153809,4224.358887,4261.410156,4033.974365,4338.077148,0.000000,2.000000,,,,0.000000,4.000000,4.000000,4.000000,4.000000,4.000000,4.000000,4.000000,4.000000,4.000000,4.000000,4.000000,4.000000,4.000000,4.000000,100.000000,8.000000,0.000000,0.495368,0.117004,-0.792480,-0.335999,-3.999939,3.999939,-3.999939,-35.889221,-120.827042,15.103380,,,,,,,,,,,,,,,,,,,,,,,,,,,,,,,,,,,,,,,,,,,,,,,,,,,,,,,,,,,,,,,,,,,,,,,,,,,,,,,,,,,,,,,,,,,,,,,,,,,,,
1606526457.510306,33.000000,0.000000,4271.794922,4182.563965,4228.205078,4266.922852,4180.128418,4210.769043,4176.666504,4170.256348,4174.615234,4178.717773,4218.974121,4248.333496,4038.846191,4327.563965,0.000000,2.000000,,,,0.000000,4.000000,4.000000,4.000000,4.000000,4.000000,4.000000,4.000000,4.000000,4.000000,4.000000,4.000000,4.000000,4.000000,4.000000,100.000000,,,,,,,,,,,,,,,,,,,,,,,,,,,,,,,,,,,,,,,,,,,,,,,,,,,,,,,,,,,,,,,,,,,,,,,,,,,,,,,,,,,,,,,,,,,,,,,,,,,,,,,,,,,,,,,,,
1606526457.518002,34.000000,0.000000,4254.358887,4187.436035,4214.487305,4257.436035,4168.846191,4203.974121,4156.153809,4166.922852,4163.461426,4158.589844,4209.743652,4240.641113,4033.846191,4301.922852,0.000000,2.000000,,,,0.000000,4.000000,4.000000,4.000000,4.000000,4.000000,4.000000,4.000000,4.000000,4.000000,4.000000,4.000000,4.000000,4.000000,4.000000,100.000000,,,,,,,,,,,,,,,,,,,,,,,,,,,,,,,,,,,,,,,,,,,,,,,,,,,,,,,,,,,,,,,,,,,,,,,,,,,,,,,,,,,,,,,,,,,,,,,,,,,,,,,,,,,,,,,,,
1606526457.525798,35.000000,0.000000,4259.615234,4165.128418,4225.000000,4247.436035,4164.743652,4197.436035,4155.769043,4187.307617,4176.282227,4162.692383,4212.179688,4255.384766,4023.461426,4300.000000,0.000000,2.000000,,,,0.000000,4.000000,4.000000,4.000000,4.000000,4.000000,4.000000,4.000000,4.000000,4.000000,4.000000,4.000000,4.000000,4.000000,4.000000,100.000000,,,,,,,,,,,,,,,,,,,,,,,,,,,,,,,,,,,,,,,,,,,,,,,,,,,,,,,,,,,,,,,,,,,,,,,,,,,,,,,,,,,,,,,,,,,,,,,,,,,,,,,,,,,,,,,,,
1606526457.533693,36.000000,0.000000,4268.589844,4155.769043,4245.641113,4263.461426,4185.000000,4212.307617,4202.692383,4207.692383,4203.333496,4195.256348,4230.256348,4272.692383,4032.435791,4320.000000,0.000000,2.000000,,,,0.000000,4.000000,4.000000,4.000000,4.000000,4.000000,4.000000,4.000000,4.000000,4.000000,4.000000,4.000000,4.000000,4.000000,4.000000,100.000000,9.000000,0.000000,0.425294,0.667053,-0.576721,-0.203857,-3.999939,3.999939,-3.999939,-36.487373,-121.126114,15.701533,,,,,,,,,,,,,,,,,,,,,,,,,,,,,,,,,,,,,,,,,,,,,,,,,,,,,,,,,,,,,,,,,,,,,,,,,,,,,,,,,,,,,,,,,,,,,,,,,,,,,
1606526457.541589,37.000000,0.000000,4250.256348,4143.717773,4232.307617,4244.358887,4188.205078,4230.384766,4195.128418,4193.846191,4190.769043,4176.282227,4213.846191,4254.871582,4018.846191,4298.205078,0.000000,2.000000,,,,0.000000,4.000000,4.000000,4.000000,4.000000,4.000000,4.000000,4.000000,4.000000,4.000000,4.000000,4.000000,4.000000,4.000000,4.000000,100.000000,,,,,,,,,,,,,,,,,,,,,,,,,,,,,,,,,,,,,,,,,,,,,,,,,,,,,,,,,,,,,,,,,,,,,,,,,,,,,,,,,,,,,,,,,,,,,,,,,,,,,,,,,,,,,,,,,
1606526457.549485,38.000000,0.000000,4216.538574,4124.743652,4201.025879,4211.666504,4166.153809,4203.717773,4147.179688,4163.589844,4163.333496,4136.794922,4185.769043,4222.307617,3984.615479,4262.179688,0.000000,2.000000,,,,0.000000,4.000000,4.000000,4.000000,4.000000,4.000000,4.000000,4.000000,4.000000,4.000000,4.000000,4.000000,4.000000,4.000000,4.000000,100.000000,,,,,,,,,,,,,,,,,,,,,,,,,,,,,,,,,,,,,,,,,,,,,,,,,,,,,,,,,,,,,,,,,,,,,,,,,,,,,,,,,,,,,,,,,,,,,,,,,,,,,,,,,,,,,,,,,
1606526457.557480,39.000000,0.000000,4224.615234,4124.487305,4204.615234,4221.410156,4159.230957,4183.974121,4151.922852,4167.051270,4171.538574,4145.769043,4195.128418,4230.897461,3980.769287,4263.333496,0.000000,2.000000,,,,0.000000,4.000000,4.000000,4.000000,4.000000,4.000000,4.000000,4.000000,4.000000,4.000000,4.000000,4.000000,4.000000,4.000000,4.000000,100.000000,,,,,,,,,,,,,,,,,,,,,,,,,,,,,,,,,,,,,,,,,,,,,,,,,,,,,,,,,,,,,,,,,,,,,,,,,,,,,,,,,,,,,,,,,,,,,,,,,,,,,,,,,,,,,,,,,
1606526457.565376,40.000000,0.000000,4230.384766,4130.000000,4220.897461,4242.179688,4178.333496,4198.717773,4188.205078,4195.641113,4200.769043,4176.282227,4213.846191,4240.641113,4004.743652,4273.461426,0.000000,2.000000,,,,0.000000,4.000000,4.000000,4.000000,4.000000,4.000000,4.000000,4.000000,4.000000,4.000000,4.000000,4.000000,4.000000,4.000000,4.000000,100.000000,10.000000,0.000000,0.426937,0.666565,-0.576050,-0.203918,-3.999939,3.999939,-3.999939,-36.786449,-119.331657,13.458457,,,,,,,,,,,,,,,,,,,,,,,,,,,,,,,,,,,,,,,,,,,,,,,,,,,,,,,,,,,,,,,,,,,,,,,,,,,,,,,,,,,,,,,,,,,,,,,,,,,,,
1606526457.573272,41.000000,0.000000,4223.461426,4115.769043,4217.948730,4230.128418,4175.897461,4218.974121,4177.179688,4198.717773,4199.871582,4163.077148,4197.820313,4227.563965,4002.179443,4262.307617,0.000000,2.000000,,,,0.000000,4.000000,4.000000,4.000000,4.000000,4.000000,4.000000,4.000000,4.000000,4.000000,4.000000,4.000000,4.000000,4.000000,4.000000,100.000000,,,,,,,,,,,,,,,,,,,,,,,,,,,,,,,,,,,,,,,,,,,,,,,,,,,,,,,,,,,,,,,,,,,,,,,,,,,,,,,,,,,,,,,,,,,,,,,,,,,,,,,,,,,,,,,,,
1606526457.581168,42.000000,0.000000,4215.384766,4094.358887,4212.563965,4218.461426,4165.769043,4217.563965,4166.410156,4188.077148,4186.538574,4141.922852,4179.743652,4225.769043,3987.564209,4250.000000,0.000000,2.000000,,,,0.000000,4.000000,4.000000,4.000000,4.000000,4.000000,4.000000,4.000000,4.000000,4.000000,4.000000,4.000000,4.000000,4.000000,4.000000,100.000000,,,,,,,,,,,,,,,,,,,,,,,,,,,,,,,,,,,,,,,,,,,,,,,,,,,,,,,,,,,,,,,,,,,,,,,,,,,,,,,,,,,,,,,,,,,,,,,,,,,,,,,,,,,,,,,,,
1606526457.589163,43.000000,0.000000,4200.384766,4078.974365,4206.538574,4214.871582,4165.512695,4209.230957,4178.205078,4181.282227,4183.077148,4140.384766,4176.025879,4223.205078,3977.948730,4230.897461,0.000000,2.000000,,,,0.000000,4.000000,4.000000,4.000000,4.000000,4.000000,4.000000,4.000000,4.000000,4.000000,4.000000,4.000000,4.000000,4.000000,4.000000,100.000000,,,,,,,,,,,,,,,,,,,,,,,,,,,,,,,,,,,,,,,,,,,,,,,,,,,,,,,,,,,,,,,,,,,,,,,,,,,,,,,,,,,,,,,,,,,,,,,,,,,,,,,,,,,,,,,,,
1606526457.597059,44.000000,0.000000,4212.948730,4094.871826,4214.358887,4227.436035,4180.000000,4214.102539,4187.179688,4194.487305,4201.922852,4163.205078,4187.692383,4228.717773,3978.333252,4231.794922,0.000000,2.000000,,,,0.000000,4.000000,4.000000,4.000000,4.000000,4.000000,4.000000,4.000000,4.000000,4.000000,4.000000,4.000000,4.000000,4.000000,4.000000,100.000000,11.000000,0.000000,0.427775,0.666077,-0.575928,-0.204102,-3.999939,3.999939,-3.999939,-35.739681,-120.677498,14.505226,,,,,,,,,,,,,,,,,,,,,,,,,,,,,,,,,,,,,,,,,,,,,,,,,,,,,,,,,,,,,,,,,,,,,,,,,,,,,,,,,,,,,,,,,,,,,,,,,,,,,
1606526457.604755,45.000000,0.000000,4238.846191,4103.461426,4227.436035,4229.871582,4184.358887,4218.846191,4193.333496,4216.410156,4217.563965,4188.974121,4202.948730,4244.230957,3979.358887,4252.179688,0.000000,2.000000,,,,0.000000,4.000000,4.000000,4.000000,4.000000,4.000000,4.000000,4.000000,4.000000,4.000000,4.000000,4.000000,4.000000,4.000000,4.000000,100.000000,,,,,,,,,,,,,,,,,,,,,,,,,,,,,,,,,,,,,,,,,,,,,,,,,,,,,,,,,,,,,,,,,,,,,,,,,,,,,,,,,,,,,,,,,,,,,,,,,,,,,,,,,,,,,,,,,
1606526457.612451,46.000000,0.000000,4220.128418,4075.897461,4216.410156,4208.461426,4166.538574,4206.666504,4179.743652,4202.948730,4194.102539,4161.794922,4196.538574,4237.307617,3971.153809,4242.948730,0.000000,2.000000,,,,0.000000,4.000000,4.000000,4.000000,4.000000,4.000000,4.000000,4.000000,4.000000,4.000000,4.000000,4.000000,4.000000,4.000000,4.000000,100.000000,,,,,,,,,,,,,,,,,,,,,,,,,,,,,,,,,,,,,,,,,,,,,,,,,,,,,,,,,,,,,,,,,,,,,,,,,,,,,,,,,,,,,,,,,,,,,,,,,,,,,,,,,,,,,,,,,
1606526457.620246,47.000000,0.000000,4188.717773,4064.230713,4205.384766,4212.563965,4164.102539,4204.358887,4162.179688,4172.307617,4171.025879,4130.256348,4179.358887,4222.692383,3970.897461,4222.307617,0.000000,2.000000,,,,0.000000,4.000000,4.000000,4.000000,4.000000,4.000000,4.000000,4.000000,4.000000,4.000000,4.000000,4.000000,4.000000,4.000000,4.000000,100.000000,,,,,,,,,,,,,,,,,,,,,,,,,,,,,,,,,,,,,,,,,,,,7.837717,5.073730,4.083533,1.304289,1.069030,62.441139,13.284600,10.461023,2.571262,1.990402,5.072895,5.094851,3.181896,1.026368,0.983663,7.916964,3.278071,2.489759,1.053881,1.896419,1.458588,2.648632,1.367152,1.922490,1.112410,3.570719,4.135596,3.257278,0.961345,0.751140,11.668965,4.193234,3.866198,1.881996,1.828198,8.556376,2.704624,3.574712,1.860964,1.445489,5.026330,2.327075,3.625970,3.386866,1.953646,9.231200,2.741701,3.898492,2.752484,3.597606,10.732630,4.593728,4.136358,2.083815,1.381580,5.005094,3.703582,4.686465,1.358235,1.110692,27.245476,10.786373,7.230346,2.339293,1.516812,10.193113,12.600573,6.851151,2.199335,1.322427
1606526457.627942,48.000000,0.000000,4206.538574,4087.051270,4216.282227,4228.589844,4179.102539,4221.282227,4170.641113,4181.794922,4182.436035,4147.820313,4180.641113,4227.948730,3980.000000,4229.358887,0.000000,2.000000,,,,0.000000,4.000000,4.000000,4.000000,4.000000,4.000000,4.000000,4.000000,4.000000,4.000000,4.000000,4.000000,4.000000,4.000000,4.000000,100.000000,12.000000,0.000000,0.427311,0.664978,-0.577454,-0.204346,-3.999939,3.999939,-3.999939,-36.935989,-119.929810,14.505226,,,,,,,,,,,,,,,,,,,,,,,,,,,,,,,,,,,,,,,,,,,,,,,,,,,,,,,,,,,,,,,,,,,,,,,,,,,,,,,,,,,,,,,,,,,,,,,,,,,,,
1606526457.635638,49.000000,0.000000,4223.077148,4105.897461,4224.358887,4225.256348,4187.948730,4221.922852,4185.897461,4215.897461,4216.794922,4186.025879,4206.153809,4229.230957,3996.281982,4250.897461,0.000000,2.000000,,,,0.000000,4.000000,4.000000,4.000000,4.000000,4.000000,4.000000,4.000000,4.000000,4.000000,4.000000,4.000000,4.000000,4.000000,4.000000,100.000000,,,,,,,,,,,,,,,,,,,,,,,,,,,,,,,,,,,,,,,,,,,,,,,,,,,,,,,,,,,,,,,,,,,,,,,,,,,,,,,,,,,,,,,,,,,,,,,,,,,,,,,,,,,,,,,,,
1606526457.643334,50.000000,0.000000,4213.717773,4086.153809,4221.025879,4208.077148,4171.922852,4210.512695,4177.692383,4221.153809,4224.615234,4186.410156,4208.461426,4223.461426,3993.205078,4244.230957,0.000000,2.000000,,,,0.000000,4.000000,4.000000,4.000000,4.000000,4.000000,4.000000,4.000000,4.000000,4.000000,4.000000,4.000000,4.000000,4.000000,4.000000,100.000000,,,,,,,,,,,,,,,,,,,,,,,,,,,,,,,,,,,,,,,,,,,,,,,,,,,,,,,,,,,,,,,,,,,,,,,,,,,,,,,,,,,,,,,,,,,,,,,,,,,,,,,,,,,,,,,,,
1606526457.651130,51.000000,0.000000,4205.512695,4079.871826,4213.717773,4202.051270,4171.538574,4210.000000,4179.487305,4216.538574,4212.692383,4172.436035,4199.615234,4225.128418,3979.358887,4231.794922,0.000000,2.000000,,,,0.000000,4.000000,4.000000,4.000000,4.000000,4.000000,4.000000,4.000000,4.000000,4.000000,4.000000,4.000000,4.000000,4.000000,4.000000,100.000000,,,,,,,,,,,,,,,,,,,,,,,,,,,,,,,,,,,,,,,,,,,,,,,,,,,,,,,,,,,,,,,,,,,,,,,,,,,,,,,,,,,,,,,,,,,,,,,,,,,,,,,,,,,,,,,,,
