title:parker  new nback trial 3, start timestamp:1606525020.358199, stop timestamp:1606525079.807254, headset type:EPOCPLUS, headset serial:4A2C14BBFA, headset firmware:634, channels:151, sampling rate:eeg_128;mot_32;pm_0.1;pow_8, samples:7627      , version:2.0
Timestamp,EEG.Counter,EEG.Interpolated,EEG.AF3,EEG.F7,EEG.F3,EEG.FC5,EEG.T7,EEG.P7,EEG.O1,EEG.O2,EEG.P8,EEG.T8,EEG.FC6,EEG.F4,EEG.F8,EEG.AF4,EEG.RawCq,EEG.Battery,MarkerIndex,MarkerType,MarkerValueInt,EEG.MarkerHardware,CQ.AF3,CQ.F7,CQ.F3,CQ.FC5,CQ.T7,CQ.P7,CQ.O1,CQ.O2,CQ.P8,CQ.T8,CQ.FC6,CQ.F4,CQ.F8,CQ.AF4,CQ.Overall,MOT.CounterMems,MOT.InterpolatedMems,MOT.Q0,MOT.Q1,MOT.Q2,MOT.Q3,MOT.AccX,MOT.AccY,MOT.AccZ,MOT.MagX,MOT.MagY,MOT.MagZ,PM.Engagement.IsActive,PM.Engagement.Scaled,PM.Engagement.Raw,PM.Engagement.Min,PM.Engagement.Max,PM.Excitement.IsActive,PM.Excitement.Scaled,PM.Excitement.Raw,PM.Excitement.Min,PM.Excitement.Max,PM.LongTermExcitement,PM.Stress.IsActive,PM.Stress.Scaled,PM.Stress.Raw,PM.Stress.Min,PM.Stress.Max,PM.Relaxation.IsActive,PM.Relaxation.Scaled,PM.Relaxation.Raw,PM.Relaxation.Min,PM.Relaxation.Max,PM.Interest.IsActive,PM.Interest.Scaled,PM.Interest.Raw,PM.Interest.Min,PM.Interest.Max,PM.Focus.IsActive,PM.Focus.Scaled,PM.Focus.Raw,PM.Focus.Min,PM.Focus.Max,POW.AF3.Theta,POW.AF3.Alpha,POW.AF3.BetaL,POW.AF3.BetaH,POW.AF3.Gamma,POW.F7.Theta,POW.F7.Alpha,POW.F7.BetaL,POW.F7.BetaH,POW.F7.Gamma,POW.F3.Theta,POW.F3.Alpha,POW.F3.BetaL,POW.F3.BetaH,POW.F3.Gamma,POW.FC5.Theta,POW.FC5.Alpha,POW.FC5.BetaL,POW.FC5.BetaH,POW.FC5.Gamma,POW.T7.Theta,POW.T7.Alpha,POW.T7.BetaL,POW.T7.BetaH,POW.T7.Gamma,POW.P7.Theta,POW.P7.Alpha,POW.P7.BetaL,POW.P7.BetaH,POW.P7.Gamma,POW.O1.Theta,POW.O1.Alpha,POW.O1.BetaL,POW.O1.BetaH,POW.O1.Gamma,POW.O2.Theta,POW.O2.Alpha,POW.O2.BetaL,POW.O2.BetaH,POW.O2.Gamma,POW.P8.Theta,POW.P8.Alpha,POW.P8.BetaL,POW.P8.BetaH,POW.P8.Gamma,POW.T8.Theta,POW.T8.Alpha,POW.T8.BetaL,POW.T8.BetaH,POW.T8.Gamma,POW.FC6.Theta,POW.FC6.Alpha,POW.FC6.BetaL,POW.FC6.BetaH,POW.FC6.Gamma,POW.F4.Theta,POW.F4.Alpha,POW.F4.BetaL,POW.F4.BetaH,POW.F4.Gamma,POW.F8.Theta,POW.F8.Alpha,POW.F8.BetaL,POW.F8.BetaH,POW.F8.Gamma,POW.AF4.Theta,POW.AF4.Alpha,POW.AF4.BetaL,POW.AF4.BetaH,POW.AF4.Gamma
1606525020.358199,2.000000,0.000000,4163.077148,4166.538574,4173.589844,4180.512695,4220.256348,4211.153809,4192.051270,4188.589844,4206.282227,4187.051270,4155.897461,4178.333496,4115.000000,4135.384766,3204.000000,2.000000,,,,0.000000,4.000000,4.000000,4.000000,4.000000,4.000000,4.000000,4.000000,4.000000,4.000000,4.000000,4.000000,4.000000,4.000000,4.000000,100.000000,,,,,,,,,,,,,,,,,,,,,,,,,,,,,,,,,,,,,,,,,,,,,,,,,,,,,,,,,,,,,,,,,,,,,,,,,,,,,,,,,,,,,,,,,,,,,,,,,,,,,,,,,,,,,,,,,
1606525020.365995,3.000000,0.000000,4162.820313,4164.615234,4176.025879,4181.794922,4219.743652,4212.051270,4196.666504,4203.589844,4216.282227,4215.897461,4167.692383,4187.692383,4124.615234,4142.820313,3574.000000,2.000000,,,,0.000000,4.000000,4.000000,4.000000,4.000000,4.000000,4.000000,4.000000,4.000000,4.000000,4.000000,4.000000,4.000000,4.000000,4.000000,100.000000,,,,,,,,,,,,,,,,,,,,,,,,,,,,,,,,,,,,,,,,,,,,,,,,,,,,,,,,,,,,,,,,,,,,,,,,,,,,,,,,,,,,,,,,,,,,,,,,,,,,,,,,,,,,,,,,,
1606525020.373690,4.000000,0.000000,4159.487305,4165.897461,4171.153809,4175.128418,4222.051270,4216.538574,4202.179688,4208.205078,4217.179688,4224.487305,4168.461426,4190.256348,4126.922852,4139.871582,3514.000000,2.000000,,,,0.000000,4.000000,4.000000,4.000000,4.000000,4.000000,4.000000,4.000000,4.000000,4.000000,4.000000,4.000000,4.000000,4.000000,4.000000,100.000000,1.000000,0.000000,0.616390,-0.019958,-0.768250,0.171631,0.970230,-0.305180,-0.184573,-36.487373,-116.939041,5.233844,,,,,,,,,,,,,,,,,,,,,,,,,,,,,,,,,,,,,,,,,,,,,,,,,,,,,,,,,,,,,,,,,,,,,,,,,,,,,,,,,,,,,,,,,,,,,,,,,,,,,
1606525020.381386,5.000000,0.000000,4163.077148,4176.666504,4170.256348,4180.000000,4231.025879,4210.897461,4197.563965,4201.794922,4210.769043,4201.410156,4166.282227,4186.538574,4129.743652,4142.436035,2637.000000,2.000000,,,,0.000000,4.000000,4.000000,4.000000,4.000000,4.000000,4.000000,4.000000,4.000000,4.000000,4.000000,4.000000,4.000000,4.000000,4.000000,100.000000,,,,,,,,,,,,,,,,,,,,,,,,,,,,,,,,,,,,,,,,,,,,,,,,,,,,,,,,,,,,,,,,,,,,,,,,,,,,,,,,,,,,,,,,,,,,,,,,,,,,,,,,,,,,,,,,,
1606525020.389082,6.000000,0.000000,4175.897461,4175.769043,4177.307617,4183.589844,4233.589844,4206.794922,4195.769043,4201.666504,4209.102539,4185.000000,4163.205078,4190.128418,4125.256348,4143.589844,3276.000000,2.000000,,,,0.000000,4.000000,4.000000,4.000000,4.000000,4.000000,4.000000,4.000000,4.000000,4.000000,4.000000,4.000000,4.000000,4.000000,4.000000,100.000000,,,,,,,,,,,,,,,,,,,,,,,,,,,,,,,,,,,,,,,,,,,,,,,,,,,,,,,,,,,,,,,,,,,,,,,,,,,,,,,,,,,,,,,,,,,,,,,,,,,,,,,,,,,,,,,,,
1606525020.396878,7.000000,0.000000,4163.461426,4169.102539,4173.077148,4175.256348,4228.461426,4205.256348,4196.922852,4205.512695,4216.025879,4205.000000,4160.897461,4187.307617,4117.563965,4140.000000,3281.000000,2.000000,,,,0.000000,4.000000,4.000000,4.000000,4.000000,4.000000,4.000000,4.000000,4.000000,4.000000,4.000000,4.000000,4.000000,4.000000,4.000000,100.000000,,,,,,,,,,,,,,,,,,,,,,,,,,,,,,,,,,,,,,,,,,,,,,,,,,,,,,,,,,,,,,,,,,,,,,,,,,,,,,,,,,,,,,,,,,,,,,,,,,,,,,,,,,,,,,,,,
1606525020.404574,8.000000,0.000000,4163.717773,4168.461426,4178.589844,4169.871582,4228.974121,4209.615234,4203.589844,4205.897461,4209.871582,4210.256348,4163.077148,4187.692383,4117.948730,4138.589844,3319.000000,2.000000,,,,0.000000,4.000000,4.000000,4.000000,4.000000,4.000000,4.000000,4.000000,4.000000,4.000000,4.000000,4.000000,4.000000,4.000000,4.000000,100.000000,2.000000,0.000000,0.615882,-0.019104,-0.768433,0.172729,0.971206,-0.306645,-0.187991,-36.487373,-115.443657,7.177844,,,,,,,,,,,,,,,,,,,,,,,,,,,,,,,,,,,,,,,,,,,,,,,,,,,,,,,,,,,,,,,,,,,,,,,,,,,,,,,,,,,,,,,,,,,,,,,,,,,,,
1606525020.412270,9.000000,0.000000,4165.641113,4170.769043,4178.974121,4175.512695,4234.358887,4212.179688,4209.871582,4203.717773,4202.948730,4187.820313,4165.128418,4186.666504,4121.410156,4136.538574,3590.000000,2.000000,,,,0.000000,4.000000,4.000000,4.000000,4.000000,4.000000,4.000000,4.000000,4.000000,4.000000,4.000000,4.000000,4.000000,4.000000,4.000000,100.000000,,,,,,,,,,,,,,,,,,,,,,,,,,,,,,,,,,,,,,,,,,,,,,,,,,,,,,,,,,,,,,,,,,,,,,,,,,,,,,,,,,,,,,,,,,,,,,,,,,,,,,,,,,,,,,,,,
1606525020.420166,10.000000,0.000000,4169.358887,4170.256348,4172.179688,4171.922852,4229.358887,4220.000000,4209.487305,4194.871582,4198.846191,4176.922852,4157.692383,4185.769043,4114.230957,4128.205078,3487.000000,2.000000,,,,0.000000,4.000000,4.000000,4.000000,4.000000,4.000000,4.000000,4.000000,4.000000,4.000000,4.000000,4.000000,4.000000,4.000000,4.000000,100.000000,,,,,,,,,,,,,,,,,,,,,,,,,,,,,,,,,,,,,,,,,,,,,,,,,,,,,,,,,,,,,,,,,,,,,,,,,,,,,,,,,,,,,,,,,,,,,,,,,,,,,,,,,,,,,,,,,
1606525020.428161,11.000000,0.000000,4169.615234,4183.205078,4173.461426,4174.615234,4231.153809,4224.102539,4205.769043,4194.615234,4200.256348,4198.974121,4165.641113,4187.179688,4121.666504,4139.102539,3541.000000,2.000000,,,,0.000000,4.000000,4.000000,4.000000,4.000000,4.000000,4.000000,4.000000,4.000000,4.000000,4.000000,4.000000,4.000000,4.000000,4.000000,100.000000,,,,,,,,,,,,,,,,,,,,,,,,,,,,,,,,,,,,,,,,,,,,,,,,,,,,,,,,,,,,,,,,,,,,,,,,,,,,,,,,,,,,,,,,,,,,,,,,,,,,,,,,,,,,,,,,,
1606525020.436057,12.000000,0.000000,4188.717773,4192.307617,4190.512695,4187.563965,4231.025879,4224.743652,4207.051270,4203.717773,4206.666504,4210.000000,4173.589844,4194.743652,4131.282227,4153.974121,3457.000000,2.000000,,,,0.000000,4.000000,4.000000,4.000000,4.000000,4.000000,4.000000,4.000000,4.000000,4.000000,4.000000,4.000000,4.000000,4.000000,4.000000,100.000000,3.000000,0.000000,0.615239,-0.017761,-0.768677,0.174072,0.981460,-0.300298,-0.191897,-34.842449,-117.686729,6.430152,,,,,,,,,,,,,,,,,,,,,,,,,,,,,,,,,,,,,,,,,,,,,,,,,,,,,,,,,,,,,,,,,,,,,,,,,,,,,,,,,,,,,,,,,,,,,,,,,,,,,
1606525020.443953,13.000000,0.000000,4187.692383,4186.410156,4184.615234,4187.820313,4227.179688,4216.282227,4209.102539,4206.538574,4217.820313,4204.230957,4166.794922,4193.717773,4122.948730,4147.051270,3169.000000,2.000000,,,,0.000000,4.000000,4.000000,4.000000,4.000000,4.000000,4.000000,4.000000,4.000000,4.000000,4.000000,4.000000,4.000000,4.000000,4.000000,100.000000,,,,,,,,,,,,,,,,,,,,,,,,,,,,,,,,,,,,,,,,,,,,,,,,,,,,,,,,,,,,,,,,,,,,,,,,,,,,,,,,,,,,,,,,,,,,,,,,,,,,,,,,,,,,,,,,,
1606525020.451649,14.000000,0.000000,4175.641113,4176.922852,4167.948730,4174.871582,4215.128418,4205.128418,4201.153809,4195.641113,4209.230957,4189.871582,4156.410156,4187.179688,4108.077148,4130.897461,3487.000000,2.000000,,,,0.000000,4.000000,4.000000,4.000000,4.000000,4.000000,4.000000,4.000000,4.000000,4.000000,4.000000,4.000000,4.000000,4.000000,4.000000,100.000000,,,,,,,,,,,,,,,,,,,,,,,,,,,,,,,,,,,,,,,,,,,,,,,,,,,,,,,,,,,,,,,,,,,,,,,,,,,,,,,,,,,,,,,,,,,,,,,,,,,,,,,,,,,,,,,,,
1606525020.459444,15.000000,0.000000,4176.025879,4185.128418,4177.820313,4184.615234,4215.384766,4202.307617,4197.948730,4199.230957,4202.307617,4192.948730,4160.384766,4187.563965,4116.666504,4138.461426,3541.000000,2.000000,,,,0.000000,4.000000,4.000000,4.000000,4.000000,4.000000,4.000000,4.000000,4.000000,4.000000,4.000000,4.000000,4.000000,4.000000,4.000000,100.000000,,,,,,,,,,,,,,,,,,,,,,,,,,,,,,,,,,,,,,,,,,,,4.128005,1.789736,1.453728,0.487513,0.431776,5.471372,3.436492,3.698905,0.735221,0.912380,2.686508,1.642394,1.261414,0.400045,0.438235,1.386001,0.926388,1.825906,0.320716,0.441341,1.932518,1.012982,1.193747,0.534578,0.398749,0.785051,0.749739,1.308329,0.363886,0.321158,1.007975,0.489795,1.066483,0.323223,0.521547,3.259731,1.684869,0.928591,0.650694,0.898613,3.019031,1.132774,0.798521,0.439821,0.686980,4.563678,0.821292,1.362832,1.162273,1.069996,8.624054,2.082025,1.217015,0.746172,0.773641,4.632218,1.904252,0.967612,0.582079,0.490292,11.930288,2.527928,2.011960,0.818685,0.780220,8.139732,2.862554,2.243286,1.090023,0.686853
1606525020.467140,16.000000,0.000000,4192.692383,4194.230957,4197.307617,4202.051270,4228.333496,4208.717773,4202.820313,4216.794922,4215.384766,4210.897461,4168.205078,4195.384766,4131.666504,4151.922852,0.000000,2.000000,,,,0.000000,4.000000,4.000000,4.000000,4.000000,4.000000,4.000000,4.000000,4.000000,4.000000,4.000000,4.000000,4.000000,4.000000,4.000000,100.000000,4.000000,0.000000,0.614947,-0.017212,-0.768799,0.174622,0.958511,-0.300298,-0.187991,-37.534142,-116.639961,6.280613,,,,,,,,,,,,,,,,,,,,,,,,,,,,,,,,,,,,,,,,,,,,,,,,,,,,,,,,,,,,,,,,,,,,,,,,,,,,,,,,,,,,,,,,,,,,,,,,,,,,,
1606525020.474836,17.000000,0.000000,4187.307617,4185.769043,4190.512695,4194.102539,4228.974121,4210.000000,4205.897461,4210.769043,4214.230957,4197.820313,4168.077148,4193.717773,4127.307617,4145.512695,0.000000,2.000000,,,,0.000000,4.000000,4.000000,4.000000,4.000000,4.000000,4.000000,4.000000,4.000000,4.000000,4.000000,4.000000,4.000000,4.000000,4.000000,100.000000,,,,,,,,,,,,,,,,,,,,,,,,,,,,,,,,,,,,,,,,,,,,,,,,,,,,,,,,,,,,,,,,,,,,,,,,,,,,,,,,,,,,,,,,,,,,,,,,,,,,,,,,,,,,,,,,,
1606525020.482532,18.000000,0.000000,4167.307617,4172.179688,4170.256348,4178.205078,4210.897461,4202.179688,4198.589844,4184.615234,4191.410156,4165.384766,4155.769043,4181.410156,4111.794922,4136.666504,0.000000,2.000000,,,,0.000000,4.000000,4.000000,4.000000,4.000000,4.000000,4.000000,4.000000,4.000000,4.000000,4.000000,4.000000,4.000000,4.000000,4.000000,100.000000,,,,,,,,,,,,,,,,,,,,,,,,,,,,,,,,,,,,,,,,,,,,,,,,,,,,,,,,,,,,,,,,,,,,,,,,,,,,,,,,,,,,,,,,,,,,,,,,,,,,,,,,,,,,,,,,,
1606525020.490328,19.000000,0.000000,4176.538574,4178.077148,4175.512695,4181.282227,4210.000000,4207.436035,4202.692383,4184.230957,4191.025879,4183.461426,4150.512695,4181.666504,4112.820313,4146.025879,0.000000,2.000000,,,,0.000000,4.000000,4.000000,4.000000,4.000000,4.000000,4.000000,4.000000,4.000000,4.000000,4.000000,4.000000,4.000000,4.000000,4.000000,100.000000,,,,,,,,,,,,,,,,,,,,,,,,,,,,,,,,,,,,,,,,,,,,,,,,,,,,,,,,,,,,,,,,,,,,,,,,,,,,,,,,,,,,,,,,,,,,,,,,,,,,,,,,,,,,,,,,,
1606525020.498024,20.000000,0.000000,4190.128418,4194.358887,4191.666504,4191.922852,4233.333496,4223.974121,4216.282227,4210.897461,4215.641113,4224.743652,4169.487305,4195.897461,4129.487305,4160.256348,0.000000,2.000000,,,,0.000000,4.000000,4.000000,4.000000,4.000000,4.000000,4.000000,4.000000,4.000000,4.000000,4.000000,4.000000,4.000000,4.000000,4.000000,100.000000,5.000000,0.000000,0.615007,-0.017151,-0.768738,0.174683,0.958999,-0.305180,-0.192386,-36.038757,-117.985809,6.131075,,,,,,,,,,,,,,,,,,,,,,,,,,,,,,,,,,,,,,,,,,,,,,,,,,,,,,,,,,,,,,,,,,,,,,,,,,,,,,,,,,,,,,,,,,,,,,,,,,,,,
1606525020.505720,21.000000,0.000000,4183.717773,4190.000000,4186.282227,4184.102539,4230.384766,4223.589844,4211.922852,4216.410156,4217.307617,4210.256348,4171.153809,4197.948730,4130.128418,4151.282227,0.000000,2.000000,,,,0.000000,4.000000,4.000000,4.000000,4.000000,4.000000,4.000000,4.000000,4.000000,4.000000,4.000000,4.000000,4.000000,4.000000,4.000000,100.000000,,,,,,,,,,,,,,,,,,,,,,,,,,,,,,,,,,,,,,,,,,,,,,,,,,,,,,,,,,,,,,,,,,,,,,,,,,,,,,,,,,,,,,,,,,,,,,,,,,,,,,,,,,,,,,,,,
1606525020.513416,22.000000,0.000000,4167.051270,4176.282227,4165.641113,4173.589844,4213.974121,4213.333496,4200.128418,4199.871582,4206.666504,4201.025879,4153.461426,4181.538574,4129.615234,4140.769043,0.000000,2.000000,,,,0.000000,4.000000,4.000000,4.000000,4.000000,4.000000,4.000000,4.000000,4.000000,4.000000,4.000000,4.000000,4.000000,4.000000,4.000000,100.000000,,,,,,,,,,,,,,,,,,,,,,,,,,,,,,,,,,,,,,,,,,,,,,,,,,,,,,,,,,,,,,,,,,,,,,,,,,,,,,,,,,,,,,,,,,,,,,,,,,,,,,,,,,,,,,,,,
1606525020.521211,23.000000,0.000000,4184.102539,4176.282227,4173.974121,4178.589844,4221.794922,4224.615234,4214.615234,4198.461426,4211.666504,4234.102539,4159.230957,4191.153809,4142.692383,4149.743652,0.000000,2.000000,,,,0.000000,4.000000,4.000000,4.000000,4.000000,4.000000,4.000000,4.000000,4.000000,4.000000,4.000000,4.000000,4.000000,4.000000,4.000000,100.000000,,,,,,,,,,,,,,,,,,,,,,,,,,,,,,,,,,,,,,,,,,,,,,,,,,,,,,,,,,,,,,,,,,,,,,,,,,,,,,,,,,,,,,,,,,,,,,,,,,,,,,,,,,,,,,,,,
1606525020.528907,24.000000,0.000000,4183.717773,4192.307617,4178.333496,4184.615234,4234.871582,4222.692383,4218.205078,4200.384766,4213.333496,4226.666504,4171.794922,4195.769043,4139.358887,4154.615234,0.000000,2.000000,,,,0.000000,4.000000,4.000000,4.000000,4.000000,4.000000,4.000000,4.000000,4.000000,4.000000,4.000000,4.000000,4.000000,4.000000,4.000000,100.000000,6.000000,0.000000,0.614943,-0.017334,-0.768799,0.174622,0.960952,-0.317388,-0.183597,-36.487373,-116.939041,5.233844,,,,,,,,,,,,,,,,,,,,,,,,,,,,,,,,,,,,,,,,,,,,,,,,,,,,,,,,,,,,,,,,,,,,,,,,,,,,,,,,,,,,,,,,,,,,,,,,,,,,,
1606525020.536603,25.000000,0.000000,4182.820313,4201.794922,4173.077148,4183.205078,4228.205078,4211.922852,4203.846191,4196.922852,4200.512695,4187.948730,4169.102539,4186.153809,4124.230957,4148.077148,0.000000,2.000000,,,,0.000000,4.000000,4.000000,4.000000,4.000000,4.000000,4.000000,4.000000,4.000000,4.000000,4.000000,4.000000,4.000000,4.000000,4.000000,100.000000,,,,,,,,,,,,,,,,,,,,,,,,,,,,,,,,,,,,,,,,,,,,,,,,,,,,,,,,,,,,,,,,,,,,,,,,,,,,,,,,,,,,,,,,,,,,,,,,,,,,,,,,,,,,,,,,,
1606525020.544399,26.000000,0.000000,4191.282227,4212.307617,4181.410156,4194.102539,4232.436035,4220.128418,4207.179688,4204.871582,4209.358887,4210.256348,4187.820313,4197.563965,4147.692383,4169.487305,0.000000,2.000000,,,,0.000000,4.000000,4.000000,4.000000,4.000000,4.000000,4.000000,4.000000,4.000000,4.000000,4.000000,4.000000,4.000000,4.000000,4.000000,100.000000,,,,,,,,,,,,,,,,,,,,,,,,,,,,,,,,,,,,,,,,,,,,,,,,,,,,,,,,,,,,,,,,,,,,,,,,,,,,,,,,,,,,,,,,,,,,,,,,,,,,,,,,,,,,,,,,,
1606525020.552295,27.000000,0.000000,4195.128418,4195.897461,4194.230957,4193.974121,4238.974121,4236.538574,4219.487305,4208.589844,4215.000000,4218.077148,4185.641113,4215.000000,4150.000000,4177.692383,0.000000,2.000000,,,,0.000000,4.000000,4.000000,4.000000,4.000000,4.000000,4.000000,4.000000,4.000000,4.000000,4.000000,4.000000,4.000000,4.000000,4.000000,100.000000,,,,,,,,,,,,,,,,,,,,,,,,,,,,,,,,,,,,,,,,,,,,,,,,,,,,,,,,,,,,,,,,,,,,,,,,,,,,,,,,,,,,,,,,,,,,,,,,,,,,,,,,,,,,,,,,,
1606525020.560190,28.000000,0.000000,4161.025879,4158.717773,4175.000000,4173.974121,4228.589844,4224.102539,4210.128418,4206.025879,4205.897461,4182.948730,4144.743652,4186.153809,4106.410156,4138.077148,0.000000,2.000000,,,,0.000000,4.000000,4.000000,4.000000,4.000000,4.000000,4.000000,4.000000,4.000000,4.000000,4.000000,4.000000,4.000000,4.000000,4.000000,100.000000,7.000000,0.000000,0.614879,-0.016907,-0.768860,0.174622,0.972183,-0.292485,-0.182132,-36.786449,-117.836273,7.327382,,,,,,,,,,,,,,,,,,,,,,,,,,,,,,,,,,,,,,,,,,,,,,,,,,,,,,,,,,,,,,,,,,,,,,,,,,,,,,,,,,,,,,,,,,,,,,,,,,,,,
1606525020.568086,29.000000,0.000000,4159.102539,4158.077148,4170.897461,4170.897461,4217.948730,4212.436035,4205.641113,4218.717773,4216.666504,4195.000000,4151.666504,4174.615234,4107.307617,4129.358887,0.000000,2.000000,,,,0.000000,4.000000,4.000000,4.000000,4.000000,4.000000,4.000000,4.000000,4.000000,4.000000,4.000000,4.000000,4.000000,4.000000,4.000000,100.000000,,,,,,,,,,,,,,,,,,,,,,,,,,,,,,,,,,,,,,,,,,,,,,,,,,,,,,,,,,,,,,,,,,,,,,,,,,,,,,,,,,,,,,,,,,,,,,,,,,,,,,,,,,,,,,,,,
1606525020.575782,30.000000,0.000000,4197.051270,4199.871582,4198.589844,4188.717773,4223.974121,4218.589844,4214.871582,4235.000000,4241.538574,4238.461426,4209.102539,4210.641113,4167.436035,4182.820313,0.000000,2.000000,,,,0.000000,4.000000,4.000000,4.000000,4.000000,4.000000,4.000000,4.000000,4.000000,4.000000,4.000000,4.000000,4.000000,4.000000,4.000000,100.000000,,,,,,,,,,,,,,,,,,,,,,,,,,,,,,,,,,,,,,,,,,,,,,,,,,,,,,,,,,,,,,,,,,,,,,,,,,,,,,,,,,,,,,,,,,,,,,,,,,,,,,,,,,,,,,,,,
1606525020.583578,31.000000,0.000000,4225.384766,4234.615234,4215.384766,4195.384766,4221.282227,4223.974121,4215.897461,4226.025879,4236.282227,4239.743652,4216.025879,4228.205078,4194.871582,4219.102539,0.000000,2.000000,,,,0.000000,4.000000,4.000000,4.000000,4.000000,4.000000,4.000000,4.000000,4.000000,4.000000,4.000000,4.000000,4.000000,4.000000,4.000000,100.000000,,,,,,,,,,,,,,,,,,,,,,,,,,,,,,,,,,,,,,,,,,,,3.219562,1.535360,1.246670,0.512458,0.409159,5.731134,3.444366,3.527129,0.706196,0.977419,2.099446,1.458473,1.003127,0.468052,0.505683,1.367682,1.018185,1.839723,0.312581,0.472415,1.947962,1.084291,1.217726,0.558145,0.478260,0.799611,0.716065,1.240964,0.361827,0.318091,1.221251,0.524739,1.042456,0.338381,0.524647,3.317545,1.589990,0.959623,0.658898,0.918320,3.611315,1.084992,0.882787,0.455298,0.680449,5.728197,1.100408,1.373204,1.071252,0.966109,9.257502,2.205779,1.230685,0.798639,0.777386,4.222047,1.802895,0.901485,0.647761,0.480214,12.033029,2.741428,1.776551,0.831706,0.797322,7.380002,2.751211,1.972278,1.101027,0.718768
1606525020.591274,32.000000,0.000000,4233.974121,4271.922852,4215.000000,4210.769043,4215.256348,4214.230957,4215.897461,4218.077148,4225.641113,4228.974121,4197.179688,4226.153809,4200.512695,4231.025879,0.000000,2.000000,,,,0.000000,4.000000,4.000000,4.000000,4.000000,4.000000,4.000000,4.000000,4.000000,4.000000,4.000000,4.000000,4.000000,4.000000,4.000000,100.000000,8.000000,0.000000,0.614811,-0.016602,-0.768921,0.174622,0.965347,-0.303716,-0.164553,-35.889221,-117.088577,5.831998,,,,,,,,,,,,,,,,,,,,,,,,,,,,,,,,,,,,,,,,,,,,,,,,,,,,,,,,,,,,,,,,,,,,,,,,,,,,,,,,,,,,,,,,,,,,,,,,,,,,,
1606525020.599170,33.000000,0.000000,4248.461426,4312.307617,4221.153809,4233.205078,4215.000000,4199.358887,4211.282227,4217.948730,4224.102539,4216.025879,4217.820313,4243.717773,4237.051270,4257.179688,0.000000,2.000000,,,,0.000000,4.000000,4.000000,4.000000,4.000000,4.000000,4.000000,4.000000,4.000000,4.000000,4.000000,4.000000,4.000000,4.000000,4.000000,100.000000,,,,,,,,,,,,,,,,,,,,,,,,,,,,,,,,,,,,,,,,,,,,,,,,,,,,,,,,,,,,,,,,,,,,,,,,,,,,,,,,,,,,,,,,,,,,,,,,,,,,,,,,,,,,,,,,,
1606525020.607065,34.000000,0.000000,4261.025879,4312.948730,4234.743652,4232.307617,4207.179688,4201.025879,4203.077148,4210.641113,4214.487305,4211.025879,4250.897461,4260.769043,4275.512695,4281.666504,0.000000,2.000000,,,,0.000000,4.000000,4.000000,4.000000,4.000000,4.000000,4.000000,4.000000,4.000000,4.000000,4.000000,4.000000,4.000000,4.000000,4.000000,100.000000,,,,,,,,,,,,,,,,,,,,,,,,,,,,,,,,,,,,,,,,,,,,,,,,,,,,,,,,,,,,,,,,,,,,,,,,,,,,,,,,,,,,,,,,,,,,,,,,,,,,,,,,,,,,,,,,,
1606525020.615061,35.000000,0.000000,4255.128418,4286.282227,4233.974121,4217.307617,4192.820313,4203.974121,4200.128418,4205.000000,4210.128418,4228.974121,4251.794922,4251.922852,4274.102539,4283.974121,0.000000,2.000000,,,,0.000000,4.000000,4.000000,4.000000,4.000000,4.000000,4.000000,4.000000,4.000000,4.000000,4.000000,4.000000,4.000000,4.000000,4.000000,100.000000,,,,,,,,,,,,,,,,,,,,,,,,,,,,,,,,,,,,,,,,,,,,,,,,,,,,,,,,,,,,,,,,,,,,,,,,,,,,,,,,,,,,,,,,,,,,,,,,,,,,,,,,,,,,,,,,,
1606525020.622957,36.000000,0.000000,4249.358887,4267.820313,4223.846191,4206.538574,4191.794922,4195.256348,4202.563965,4210.512695,4214.615234,4218.077148,4234.358887,4247.436035,4246.538574,4270.641113,0.000000,2.000000,,,,0.000000,4.000000,4.000000,4.000000,4.000000,4.000000,4.000000,4.000000,4.000000,4.000000,4.000000,4.000000,4.000000,4.000000,4.000000,100.000000,9.000000,0.000000,0.614642,-0.016174,-0.768982,0.174988,0.958511,-0.296880,-0.193362,-36.487373,-117.238113,6.131075,,,,,,,,,,,,,,,,,,,,,,,,,,,,,,,,,,,,,,,,,,,,,,,,,,,,,,,,,,,,,,,,,,,,,,,,,,,,,,,,,,,,,,,,,,,,,,,,,,,,,
1606525020.630852,37.000000,0.000000,4236.538574,4255.384766,4213.717773,4200.128418,4205.769043,4189.487305,4201.153809,4222.820313,4217.948730,4202.692383,4233.077148,4250.897461,4232.436035,4260.769043,0.000000,2.000000,,,,0.000000,4.000000,4.000000,4.000000,4.000000,4.000000,4.000000,4.000000,4.000000,4.000000,4.000000,4.000000,4.000000,4.000000,4.000000,100.000000,,,,,,,,,,,,,,,,,,,,,,,,,,,,,,,,,,,,,,,,,,,,,,,,,,,,,,,,,,,,,,,,,,,,,,,,,,,,,,,,,,,,,,,,,,,,,,,,,,,,,,,,,,,,,,,,,
1606525020.638748,38.000000,0.000000,4232.948730,4246.538574,4220.128418,4202.563965,4211.025879,4200.512695,4208.461426,4235.000000,4225.128418,4230.769043,4247.563965,4261.153809,4239.743652,4267.563965,0.000000,2.000000,,,,0.000000,4.000000,4.000000,4.000000,4.000000,4.000000,4.000000,4.000000,4.000000,4.000000,4.000000,4.000000,4.000000,4.000000,4.000000,100.000000,,,,,,,,,,,,,,,,,,,,,,,,,,,,,,,,,,,,,,,,,,,,,,,,,,,,,,,,,,,,,,,,,,,,,,,,,,,,,,,,,,,,,,,,,,,,,,,,,,,,,,,,,,,,,,,,,
1606525020.646744,39.000000,0.000000,4223.589844,4252.563965,4219.487305,4211.538574,4210.384766,4195.897461,4202.179688,4241.153809,4237.820313,4254.230957,4255.256348,4256.410156,4246.922852,4274.487305,0.000000,2.000000,,,,0.000000,4.000000,4.000000,4.000000,4.000000,4.000000,4.000000,4.000000,4.000000,4.000000,4.000000,4.000000,4.000000,4.000000,4.000000,100.000000,,,,,,,,,,,,,,,,,,,,,,,,,,,,,,,,,,,,,,,,,,,,,,,,,,,,,,,,,,,,,,,,,,,,,,,,,,,,,,,,,,,,,,,,,,,,,,,,,,,,,,,,,,,,,,,,,
1606525020.654639,40.000000,0.000000,4213.974121,4252.820313,4205.512695,4204.743652,4206.538574,4178.461426,4181.922852,4231.410156,4228.717773,4227.307617,4242.692383,4240.384766,4236.922852,4259.615234,0.000000,2.000000,,,,0.000000,4.000000,4.000000,4.000000,4.000000,4.000000,4.000000,4.000000,4.000000,4.000000,4.000000,4.000000,4.000000,4.000000,4.000000,100.000000,10.000000,0.000000,0.614282,-0.015686,-0.769043,0.176025,0.976089,-0.293462,-0.191897,-35.291065,-117.238113,6.878767,,,,,,,,,,,,,,,,,,,,,,,,,,,,,,,,,,,,,,,,,,,,,,,,,,,,,,,,,,,,,,,,,,,,,,,,,,,,,,,,,,,,,,,,,,,,,,,,,,,,,
1606525020.662535,41.000000,0.000000,4201.538574,4249.102539,4198.077148,4211.025879,4217.051270,4178.461426,4179.743652,4225.384766,4223.077148,4220.512695,4242.948730,4234.743652,4240.641113,4261.153809,0.000000,2.000000,,,,0.000000,4.000000,4.000000,4.000000,4.000000,4.000000,4.000000,4.000000,4.000000,4.000000,4.000000,4.000000,4.000000,4.000000,4.000000,100.000000,,,,,,,,,,,,,,,,,,,,,,,,,,,,,,,,,,,,,,,,,,,,,,,,,,,,,,,,,,,,,,,,,,,,,,,,,,,,,,,,,,,,,,,,,,,,,,,,,,,,,,,,,,,,,,,,,
1606525020.670231,42.000000,0.000000,4217.563965,4253.077148,4211.666504,4228.846191,4231.153809,4196.538574,4197.051270,4233.333496,4231.666504,4235.897461,4255.128418,4249.871582,4252.051270,4275.128418,0.000000,2.000000,,,,0.000000,4.000000,4.000000,4.000000,4.000000,4.000000,4.000000,4.000000,4.000000,4.000000,4.000000,4.000000,4.000000,4.000000,4.000000,100.000000,,,,,,,,,,,,,,,,,,,,,,,,,,,,,,,,,,,,,,,,,,,,,,,,,,,,,,,,,,,,,,,,,,,,,,,,,,,,,,,,,,,,,,,,,,,,,,,,,,,,,,,,,,,,,,,,,
1606525020.678027,43.000000,0.000000,4214.871582,4256.282227,4203.717773,4222.948730,4228.846191,4194.743652,4201.410156,4237.820313,4233.717773,4239.871582,4250.769043,4245.384766,4239.487305,4262.692383,0.000000,2.000000,,,,0.000000,4.000000,4.000000,4.000000,4.000000,4.000000,4.000000,4.000000,4.000000,4.000000,4.000000,4.000000,4.000000,4.000000,4.000000,100.000000,,,,,,,,,,,,,,,,,,,,,,,,,,,,,,,,,,,,,,,,,,,,,,,,,,,,,,,,,,,,,,,,,,,,,,,,,,,,,,,,,,,,,,,,,,,,,,,,,,,,,,,,,,,,,,,,,
1606525020.685723,44.000000,0.000000,4205.256348,4240.128418,4188.589844,4197.948730,4210.128418,4188.717773,4193.205078,4232.563965,4220.256348,4235.384766,4231.410156,4228.205078,4214.102539,4238.461426,0.000000,2.000000,,,,0.000000,4.000000,4.000000,4.000000,4.000000,4.000000,4.000000,4.000000,4.000000,4.000000,4.000000,4.000000,4.000000,4.000000,4.000000,100.000000,11.000000,0.000000,0.614038,-0.015625,-0.769043,0.176880,0.978531,-0.297856,-0.193362,-34.692913,-117.088577,5.532921,,,,,,,,,,,,,,,,,,,,,,,,,,,,,,,,,,,,,,,,,,,,,,,,,,,,,,,,,,,,,,,,,,,,,,,,,,,,,,,,,,,,,,,,,,,,,,,,,,,,,
1606525020.693419,45.000000,0.000000,4203.717773,4230.769043,4186.794922,4195.000000,4201.153809,4196.025879,4191.922852,4231.794922,4220.897461,4231.538574,4228.974121,4222.179688,4215.128418,4239.102539,0.000000,2.000000,,,,0.000000,4.000000,4.000000,4.000000,4.000000,4.000000,4.000000,4.000000,4.000000,4.000000,4.000000,4.000000,4.000000,4.000000,4.000000,100.000000,,,,,,,,,,,,,,,,,,,,,,,,,,,,,,,,,,,,,,,,,,,,,,,,,,,,,,,,,,,,,,,,,,,,,,,,,,,,,,,,,,,,,,,,,,,,,,,,,,,,,,,,,,,,,,,,,
1606525020.701114,46.000000,0.000000,4214.230957,4233.077148,4193.974121,4199.871582,4201.410156,4205.641113,4199.230957,4242.820313,4233.205078,4222.051270,4234.743652,4231.794922,4222.948730,4245.769043,0.000000,2.000000,,,,0.000000,4.000000,4.000000,4.000000,4.000000,4.000000,4.000000,4.000000,4.000000,4.000000,4.000000,4.000000,4.000000,4.000000,4.000000,100.000000,,,,,,,,,,,,,,,,,,,,,,,,,,,,,,,,,,,,,,,,,,,,,,,,,,,,,,,,,,,,,,,,,,,,,,,,,,,,,,,,,,,,,,,,,,,,,,,,,,,,,,,,,,,,,,,,,
1606525020.708910,47.000000,0.000000,4214.358887,4225.000000,4199.230957,4190.000000,4201.666504,4199.871582,4201.922852,4245.384766,4233.205078,4221.282227,4229.743652,4237.051270,4214.230957,4237.307617,0.000000,2.000000,,,,0.000000,4.000000,4.000000,4.000000,4.000000,4.000000,4.000000,4.000000,4.000000,4.000000,4.000000,4.000000,4.000000,4.000000,4.000000,100.000000,,,,,,,,,,,,,,,,,,,,,,,,,,,,,,,,,,,,,,,,,,,,3.001256,1.631610,1.017950,0.528320,0.386968,6.916391,3.777484,3.161531,0.671794,1.030870,2.049215,1.539286,0.778207,0.524685,0.556386,1.423850,1.246807,1.726781,0.334407,0.494874,1.916058,1.129819,1.129110,0.608780,0.552462,0.787368,0.669071,1.080019,0.351943,0.328066,1.423037,0.625733,0.957013,0.377126,0.525641,3.216420,1.609354,0.952492,0.670191,0.903980,3.844739,1.085908,0.937630,0.489415,0.658301,6.607710,1.490781,1.305340,0.968406,0.915250,9.451692,2.375015,1.250180,0.833960,0.753843,4.114840,1.947843,0.833476,0.687970,0.463785,12.563509,3.133733,1.605884,0.833475,0.796436,7.566699,2.978037,1.686188,1.060307,0.729138
1606525020.716606,48.000000,0.000000,4218.077148,4215.897461,4204.871582,4186.538574,4198.717773,4198.077148,4194.358887,4228.846191,4218.974121,4227.692383,4229.743652,4239.487305,4209.743652,4234.358887,0.000000,2.000000,,,,0.000000,4.000000,4.000000,4.000000,4.000000,4.000000,4.000000,4.000000,4.000000,4.000000,4.000000,4.000000,4.000000,4.000000,4.000000,100.000000,12.000000,0.000000,0.614025,-0.015686,-0.768982,0.177185,0.959487,-0.309087,-0.187015,-36.337833,-119.032578,5.831998,,,,,,,,,,,,,,,,,,,,,,,,,,,,,,,,,,,,,,,,,,,,,,,,,,,,,,,,,,,,,,,,,,,,,,,,,,,,,,,,,,,,,,,,,,,,,,,,,,,,,
1606525020.724302,49.000000,0.000000,4229.871582,4228.077148,4211.025879,4196.282227,4202.820313,4209.743652,4199.871582,4223.589844,4216.538574,4222.563965,4240.641113,4248.461426,4222.307617,4241.282227,0.000000,2.000000,,,,0.000000,4.000000,4.000000,4.000000,4.000000,4.000000,4.000000,4.000000,4.000000,4.000000,4.000000,4.000000,4.000000,4.000000,4.000000,100.000000,,,,,,,,,,,,,,,,,,,,,,,,,,,,,,,,,,,,,,,,,,,,,,,,,,,,,,,,,,,,,,,,,,,,,,,,,,,,,,,,,,,,,,,,,,,,,,,,,,,,,,,,,,,,,,,,,
1606525020.732198,50.000000,0.000000,4226.538574,4231.282227,4213.205078,4196.922852,4204.615234,4214.358887,4208.589844,4230.897461,4225.384766,4220.128418,4240.256348,4244.871582,4224.487305,4237.436035,0.000000,2.000000,,,,0.000000,4.000000,4.000000,4.000000,4.000000,4.000000,4.000000,4.000000,4.000000,4.000000,4.000000,4.000000,4.000000,4.000000,4.000000,100.000000,,,,,,,,,,,,,,,,,,,,,,,,,,,,,,,,,,,,,,,,,,,,,,,,,,,,,,,,,,,,,,,,,,,,,,,,,,,,,,,,,,,,,,,,,,,,,,,,,,,,,,,,,,,,,,,,,
1606525020.740193,51.000000,0.000000,4218.461426,4208.461426,4214.358887,4185.384766,4195.897461,4206.922852,4206.282227,4222.436035,4218.077148,4227.436035,4228.333496,4231.922852,4208.589844,4225.256348,0.000000,2.000000,,,,0.000000,4.000000,4.000000,4.000000,4.000000,4.000000,4.000000,4.000000,4.000000,4.000000,4.000000,4.000000,4.000000,4.000000,4.000000,100.000000,,,,,,,,,,,,,,,,,,,,,,,,,,,,,,,,,,,,,,,,,,,,,,,,,,,,,,,,,,,,,,,,,,,,,,,,,,,,,,,,,,,,,,,,,,,,,,,,,,,,,,,,,,,,,,,,,
1606525020.748089,52.000000,0.000000,4214.871582,4202.563965,4203.333496,4185.512695,4194.102539,4203.333496,4202.820313,4210.000000,4210.512695,4227.436035,4228.846191,4228.333496,4205.512695,4222.563965,0.000000,2.000000,,,,0.000000,4.000000,4.000000,4.000000,4.000000,4.000000,4.000000,4.000000,4.000000,4.000000,4.000000,4.000000,4.000000,4.000000,4.000000,100.000000,13.000000,0.000000,0.614321,-0.016479,-0.768799,0.176880,0.963882,-0.312993,-0.187991,-36.935989,-117.985809,5.682460,,,,,,,,,,,,,,,,,,,,,,,,,,,,,,,,,,,,,,,,,,,,,,,,,,,,,,,,,,,,,,,,,,,,,,,,,,,,,,,,,,,,,,,,,,,,,,,,,,,,,
1606525020.755785,53.000000,0.000000,4227.179688,4216.025879,4200.512695,4195.128418,4200.897461,4212.563965,4202.307617,4215.384766,4213.974121,4217.692383,4233.589844,4235.641113,4214.358887,4218.717773,0.000000,2.000000,,,,0.000000,4.000000,4.000000,4.000000,4.000000,4.000000,4.000000,4.000000,4.000000,4.000000,4.000000,4.000000,4.000000,4.000000,4.000000,100.000000,,,,,,,,,,,,,,,,,,,,,,,,,,,,,,,,,,,,,,,,,,,,,,,,,,,,,,,,,,,,,,,,,,,,,,,,,,,,,,,,,,,,,,,,,,,,,,,,,,,,,,,,,,,,,,,,,
1606525020.763481,54.000000,0.000000,4225.000000,4214.743652,4203.974121,4195.384766,4202.820313,4210.000000,4195.000000,4218.461426,4216.538574,4222.563965,4231.282227,4232.948730,4218.461426,4217.436035,0.000000,2.000000,,,,0.000000,4.000000,4.000000,4.000000,4.000000,4.000000,4.000000,4.000000,4.000000,4.000000,4.000000,4.000000,4.000000,4.000000,4.000000,100.000000,,,,,,,,,,,,,,,,,,,,,,,,,,,,,,,,,,,,,,,,,,,,,,,,,,,,,,,,,,,,,,,,,,,,,,,,,,,,,,,,,,,,,,,,,,,,,,,,,,,,,,,,,,,,,,,,,
1606525020.771277,55.000000,0.000000,4228.077148,4200.128418,4209.102539,4186.538574,4193.717773,4202.051270,4195.000000,4207.179688,4211.538574,4222.307617,4226.922852,4238.589844,4218.333496,4222.051270,0.000000,2.000000,,,,0.000000,4.000000,4.000000,4.000000,4.000000,4.000000,4.000000,4.000000,4.000000,4.000000,4.000000,4.000000,4.000000,4.000000,4.000000,100.000000,,,,,,,,,,,,,,,,,,,,,,,,,,,,,,,,,,,,,,,,,,,,,,,,,,,,,,,,,,,,,,,,,,,,,,,,,,,,,,,,,,,,,,,,,,,,,,,,,,,,,,,,,,,,,,,,,
1606525020.779172,56.000000,0.000000,4227.436035,4205.000000,4209.358887,4188.205078,4190.512695,4205.769043,4196.922852,4197.948730,4207.692383,4209.487305,4227.436035,4240.769043,4224.102539,4224.358887,0.000000,2.000000,,,,0.000000,4.000000,4.000000,4.000000,4.000000,4.000000,4.000000,4.000000,4.000000,4.000000,4.000000,4.000000,4.000000,4.000000,4.000000,100.000000,14.000000,0.000000,0.614554,-0.017395,-0.768677,0.176514,0.977554,-0.310063,-0.180667,-36.337833,-118.284889,7.327382,,,,,,,,,,,,,,,,,,,,,,,,,,,,,,,,,,,,,,,,,,,,,,,,,,,,,,,,,,,,,,,,,,,,,,,,,,,,,,,,,,,,,,,,,,,,,,,,,,,,,
1606525020.787068,57.000000,0.000000,4237.179688,4205.384766,4221.794922,4191.410156,4198.077148,4224.615234,4204.743652,4198.077148,4203.205078,4208.205078,4225.769043,4239.102539,4223.205078,4224.487305,0.000000,2.000000,,,,0.000000,4.000000,4.000000,4.000000,4.000000,4.000000,4.000000,4.000000,4.000000,4.000000,4.000000,4.000000,4.000000,4.000000,4.000000,100.000000,,,,,,,,,,,,,,,,,,,,,,,,,,,,,,,,,,,,,,,,,,,,,,,,,,,,,,,,,,,,,,,,,,,,,,,,,,,,,,,,,,,,,,,,,,,,,,,,,,,,,,,,,,,,,,,,,
1606525020.794964,58.000000,0.000000,4226.666504,4194.102539,4216.538574,4189.615234,4204.487305,4225.384766,4211.794922,4192.051270,4194.487305,4207.051270,4217.179688,4227.948730,4217.051270,4223.717773,0.000000,2.000000,,,,0.000000,4.000000,4.000000,4.000000,4.000000,4.000000,4.000000,4.000000,4.000000,4.000000,4.000000,4.000000,4.000000,4.000000,4.000000,100.000000,,,,,,,,,,,,,,,,,,,,,,,,,,,,,,,,,,,,,,,,,,,,,,,,,,,,,,,,,,,,,,,,,,,,,,,,,,,,,,,,,,,,,,,,,,,,,,,,,,,,,,,,,,,,,,,,,
1606525020.802560,59.000000,0.000000,4219.743652,4194.743652,4203.717773,4191.025879,4196.922852,4217.563965,4207.436035,4175.512695,4183.846191,4188.333496,4204.102539,4219.102539,4211.666504,4213.205078,0.000000,2.000000,,,,0.000000,4.000000,4.000000,4.000000,4.000000,4.000000,4.000000,4.000000,4.000000,4.000000,4.000000,4.000000,4.000000,4.000000,4.000000,100.000000,,,,,,,,,,,,,,,,,,,,,,,,,,,,,,,,,,,,,,,,,,,,,,,,,,,,,,,,,,,,,,,,,,,,,,,,,,,,,,,,,,,,,,,,,,,,,,,,,,,,,,,,,,,,,,,,,
1606525020.810256,60.000000,0.000000,4218.717773,4212.948730,4204.487305,4197.692383,4198.589844,4213.846191,4203.077148,4179.102539,4192.436035,4199.487305,4208.205078,4219.871582,4212.436035,4208.205078,0.000000,2.000000,,,,0.000000,4.000000,4.000000,4.000000,4.000000,4.000000,4.000000,4.000000,4.000000,4.000000,4.000000,4.000000,4.000000,4.000000,4.000000,100.000000,15.000000,0.000000,0.614224,-0.017029,-0.768738,0.177429,0.969741,-0.302251,-0.186038,-36.038757,-116.939041,6.878767,,,,,,,,,,,,,,,,,,,,,,,,,,,,,,,,,,,,,,,,,,,,,,,,,,,,,,,,,,,,,,,,,,,,,,,,,,,,,,,,,,,,,,,,,,,,,,,,,,,,,
1606525020.817952,61.000000,0.000000,4232.820313,4218.846191,4214.230957,4199.871582,4207.051270,4215.897461,4210.256348,4197.179688,4203.589844,4215.769043,4214.230957,4231.794922,4210.256348,4210.128418,0.000000,2.000000,,,,0.000000,4.000000,4.000000,4.000000,4.000000,4.000000,4.000000,4.000000,4.000000,4.000000,4.000000,4.000000,4.000000,4.000000,4.000000,100.000000,,,,,,,,,,,,,,,,,,,,,,,,,,,,,,,,,,,,,,,,,,,,,,,,,,,,,,,,,,,,,,,,,,,,,,,,,,,,,,,,,,,,,,,,,,,,,,,,,,,,,,,,,,,,,,,,,
1606525020.825648,62.000000,0.000000,4237.307617,4206.282227,4213.077148,4200.384766,4205.641113,4219.871582,4212.436035,4194.615234,4197.563965,4190.128418,4209.230957,4229.871582,4208.846191,4210.256348,0.000000,2.000000,,,,0.000000,4.000000,4.000000,4.000000,4.000000,4.000000,4.000000,4.000000,4.000000,4.000000,4.000000,4.000000,4.000000,4.000000,4.000000,100.000000,,,,,,,,,,,,,,,,,,,,,,,,,,,,,,,,,,,,,,,,,,,,,,,,,,,,,,,,,,,,,,,,,,,,,,,,,,,,,,,,,,,,,,,,,,,,,,,,,,,,,,,,,,,,,,,,,
1606525020.833643,63.000000,0.000000,4228.974121,4195.000000,4208.077148,4185.897461,4196.922852,4224.743652,4205.000000,4179.743652,4182.948730,4171.538574,4207.820313,4222.051270,4206.538574,4208.589844,0.000000,2.000000,,,,0.000000,4.000000,4.000000,4.000000,4.000000,4.000000,4.000000,4.000000,4.000000,4.000000,4.000000,4.000000,4.000000,4.000000,4.000000,100.000000,,,,,,,,,,,,,,,,,,,,,,,,,,,,,,,,,,,,,,,,,,,,3.238473,1.931712,0.785457,0.533114,0.371863,8.217277,4.210809,2.700132,0.661163,1.039862,2.366740,1.777162,0.578294,0.552824,0.582001,1.484262,1.505454,1.506335,0.374910,0.498712,1.849303,1.109107,0.952180,0.671006,0.600662,0.754032,0.606372,0.887801,0.338120,0.349556,1.564501,0.751791,0.821068,0.409775,0.527611,2.914964,1.755254,0.907733,0.670108,0.856591,3.681201,1.142465,0.968424,0.521027,0.622640,6.943726,1.894799,1.216859,0.850362,0.944342,9.053067,2.497219,1.248819,0.843192,0.715680,4.090280,2.260698,0.774110,0.689374,0.443940,13.031671,3.510854,1.499601,0.815242,0.771083,8.134308,3.310610,1.399971,0.989514,0.715822
1606525020.841539,64.000000,0.000000,4218.333496,4194.230957,4204.102539,4171.410156,4197.307617,4223.461426,4207.307617,4183.717773,4182.948730,4191.922852,4210.256348,4226.282227,4193.846191,4204.615234,3341.000000,2.000000,,,,0.000000,4.000000,4.000000,4.000000,4.000000,4.000000,4.000000,4.000000,4.000000,4.000000,4.000000,4.000000,4.000000,4.000000,4.000000,100.000000,16.000000,0.000000,0.613796,-0.016479,-0.768738,0.178955,0.964858,-0.309575,-0.172854,-36.786449,-117.836273,5.831998,,,,,,,,,,,,,,,,,,,,,,,,,,,,,,,,,,,,,,,,,,,,,,,,,,,,,,,,,,,,,,,,,,,,,,,,,,,,,,,,,,,,,,,,,,,,,,,,,,,,,
1606525020.849435,65.000000,0.000000,4212.563965,4186.282227,4193.205078,4172.436035,4194.230957,4218.077148,4203.717773,4183.846191,4180.256348,4189.230957,4195.256348,4222.307617,4178.589844,4197.179688,3519.000000,2.000000,,,,0.000000,4.000000,4.000000,4.000000,4.000000,4.000000,4.000000,4.000000,4.000000,4.000000,4.000000,4.000000,4.000000,4.000000,4.000000,100.000000,,,,,,,,,,,,,,,,,,,,,,,,,,,,,,,,,,,,,,,,,,,,,,,,,,,,,,,,,,,,,,,,,,,,,,,,,,,,,,,,,,,,,,,,,,,,,,,,,,,,,,,,,,,,,,,,,
1606525020.857330,66.000000,0.000000,4223.205078,4185.512695,4196.538574,4179.358887,4193.589844,4221.794922,4205.256348,4177.179688,4177.948730,4174.230957,4191.282227,4223.846191,4190.769043,4205.897461,3183.000000,2.000000,,,,0.000000,4.000000,4.000000,4.000000,4.000000,4.000000,4.000000,4.000000,4.000000,4.000000,4.000000,4.000000,4.000000,4.000000,4.000000,100.000000,,,,,,,,,,,,,,,,,,,,,,,,,,,,,,,,,,,,,,,,,,,,,,,,,,,,,,,,,,,,,,,,,,,,,,,,,,,,,,,,,,,,,,,,,,,,,,,,,,,,,,,,,,,,,,,,,
1606525020.864926,67.000000,0.000000,4227.692383,4203.461426,4205.128418,4182.948730,4202.051270,4224.358887,4213.974121,4196.922852,4192.307617,4180.384766,4211.153809,4236.025879,4209.743652,4221.538574,3591.000000,2.000000,,,,0.000000,4.000000,4.000000,4.000000,4.000000,4.000000,4.000000,4.000000,4.000000,4.000000,4.000000,4.000000,4.000000,4.000000,4.000000,100.000000,,,,,,,,,,,,,,,,,,,,,,,,,,,,,,,,,,,,,,,,,,,,,,,,,,,,,,,,,,,,,,,,,,,,,,,,,,,,,,,,,,,,,,,,,,,,,,,,,,,,,,,,,,,,,,,,,
1606525020.872622,68.000000,0.000000,4231.153809,4208.717773,4208.589844,4183.846191,4201.282227,4225.256348,4211.794922,4210.256348,4197.820313,4181.666504,4218.205078,4241.922852,4202.820313,4216.794922,3542.000000,2.000000,,,,0.000000,4.000000,4.000000,4.000000,4.000000,4.000000,4.000000,4.000000,4.000000,4.000000,4.000000,4.000000,4.000000,4.000000,4.000000,100.000000,17.000000,0.000000,0.612491,-0.014587,-0.769043,0.182251,0.970230,-0.323735,-0.188968,-34.692913,-116.639961,7.028306,,,,,,,,,,,,,,,,,,,,,,,,,,,,,,,,,,,,,,,,,,,,,,,,,,,,,,,,,,,,,,,,,,,,,,,,,,,,,,,,,,,,,,,,,,,,,,,,,,,,,
1606525020.880318,69.000000,0.000000,4228.846191,4204.487305,4207.051270,4192.820313,4194.871582,4225.512695,4200.000000,4186.410156,4193.205078,4189.358887,4216.282227,4234.743652,4203.205078,4211.282227,2628.000000,2.000000,,,,0.000000,4.000000,4.000000,4.000000,4.000000,4.000000,4.000000,4.000000,4.000000,4.000000,4.000000,4.000000,4.000000,4.000000,4.000000,100.000000,,,,,,,,,,,,,,,,,,,,,,,,,,,,,,,,,,,,,,,,,,,,,,,,,,,,,,,,,,,,,,,,,,,,,,,,,,,,,,,,,,,,,,,,,,,,,,,,,,,,,,,,,,,,,,,,,
1606525020.888014,70.000000,0.000000,4246.922852,4221.666504,4226.282227,4205.384766,4206.410156,4235.256348,4215.641113,4181.794922,4196.282227,4204.358887,4228.846191,4248.846191,4224.358887,4227.563965,3274.000000,2.000000,,,,0.000000,4.000000,4.000000,4.000000,4.000000,4.000000,4.000000,4.000000,4.000000,4.000000,4.000000,4.000000,4.000000,4.000000,4.000000,100.000000,,,,,,,,,,,,,,,,,,,,,,,,,,,,,,,,,,,,,,,,,,,,,,,,,,,,,,,,,,,,,,,,,,,,,,,,,,,,,,,,,,,,,,,,,,,,,,,,,,,,,,,,,,,,,,,,,
1606525020.895810,71.000000,0.000000,4259.102539,4241.025879,4237.820313,4211.410156,4233.846191,4239.743652,4239.102539,4209.230957,4209.102539,4212.179688,4240.641113,4261.794922,4232.179688,4242.563965,3280.000000,2.000000,,,,0.000000,4.000000,4.000000,4.000000,4.000000,4.000000,4.000000,4.000000,4.000000,4.000000,4.000000,4.000000,4.000000,4.000000,4.000000,100.000000,,,,,,,,,,,,,,,,,,,,,,,,,,,,,,,,,,,,,,,,,,,,,,,,,,,,,,,,,,,,,,,,,,,,,,,,,,,,,,,,,,,,,,,,,,,,,,,,,,,,,,,,,,,,,,,,,
1606525020.903506,72.000000,0.000000,4265.641113,4230.256348,4237.948730,4210.769043,4234.871582,4238.846191,4238.077148,4217.692383,4210.897461,4213.974121,4237.820313,4262.948730,4225.384766,4235.128418,3302.000000,2.000000,,,,0.000000,4.000000,4.000000,4.000000,4.000000,4.000000,4.000000,4.000000,4.000000,4.000000,4.000000,4.000000,4.000000,4.000000,4.000000,100.000000,18.000000,0.000000,0.611114,-0.012146,-0.769348,0.185730,0.969741,-0.319829,-0.176761,-35.440605,-117.836273,7.028306,,,,,,,,,,,,,,,,,,,,,,,,,,,,,,,,,,,,,,,,,,,,,,,,,,,,,,,,,,,,,,,,,,,,,,,,,,,,,,,,,,,,,,,,,,,,,,,,,,,,,
1606525020.911202,73.000000,0.000000,4250.897461,4225.384766,4235.384766,4217.563965,4222.179688,4234.102539,4224.230957,4207.179688,4210.384766,4221.282227,4244.230957,4258.974121,4234.615234,4235.128418,3561.000000,2.000000,,,,0.000000,4.000000,4.000000,4.000000,4.000000,4.000000,4.000000,4.000000,4.000000,4.000000,4.000000,4.000000,4.000000,4.000000,4.000000,100.000000,,,,,,,,,,,,,,,,,,,,,,,,,,,,,,,,,,,,,,,,,,,,,,,,,,,,,,,,,,,,,,,,,,,,,,,,,,,,,,,,,,,,,,,,,,,,,,,,,,,,,,,,,,,,,,,,,
1606525020.918898,74.000000,0.000000,4241.794922,4220.769043,4233.333496,4208.589844,4212.051270,4229.871582,4219.230957,4202.307617,4202.692383,4205.769043,4236.025879,4252.563965,4225.512695,4229.871582,3470.000000,2.000000,,,,0.000000,4.000000,4.000000,4.000000,4.000000,4.000000,4.000000,4.000000,4.000000,4.000000,4.000000,4.000000,4.000000,4.000000,4.000000,100.000000,,,,,,,,,,,,,,,,,,,,,,,,,,,,,,,,,,,,,,,,,,,,,,,,,,,,,,,,,,,,,,,,,,,,,,,,,,,,,,,,,,,,,,,,,,,,,,,,,,,,,,,,,,,,,,,,,
1606525020.926693,75.000000,0.000000,4240.256348,4211.410156,4226.922852,4197.948730,4211.666504,4221.666504,4221.410156,4209.230957,4201.153809,4202.179688,4221.922852,4247.820313,4208.717773,4219.871582,3523.000000,2.000000,,,,0.000000,4.000000,4.000000,4.000000,4.000000,4.000000,4.000000,4.000000,4.000000,4.000000,4.000000,4.000000,4.000000,4.000000,4.000000,100.000000,,,,,,,,,,,,,,,,,,,,,,,,,,,,,,,,,,,,,,,,,,,,,,,,,,,,,,,,,,,,,,,,,,,,,,,,,,,,,,,,,,,,,,,,,,,,,,,,,,,,,,,,,,,,,,,,,
1606525020.934389,76.000000,0.000000,4249.487305,4206.025879,4230.000000,4203.077148,4210.512695,4222.436035,4223.205078,4215.641113,4207.948730,4212.820313,4221.922852,4251.153809,4214.743652,4221.794922,3450.000000,2.000000,,,,0.000000,4.000000,4.000000,4.000000,4.000000,4.000000,4.000000,4.000000,4.000000,4.000000,4.000000,4.000000,4.000000,4.000000,4.000000,100.000000,19.000000,0.000000,0.609740,-0.009827,-0.769653,0.189087,0.958022,-0.327153,-0.185550,-34.692913,-117.836273,6.280613,,,,,,,,,,,,,,,,,,,,,,,,,,,,,,,,,,,,,,,,,,,,,,,,,,,,,,,,,,,,,,,,,,,,,,,,,,,,,,,,,,,,,,,,,,,,,,,,,,,,,
1606525020.942085,77.000000,0.000000,4239.487305,4204.487305,4227.179688,4201.794922,4210.512695,4226.666504,4217.692383,4209.230957,4205.897461,4202.563965,4220.256348,4241.153809,4216.922852,4218.589844,3169.000000,2.000000,,,,0.000000,4.000000,4.000000,4.000000,4.000000,4.000000,4.000000,4.000000,4.000000,4.000000,4.000000,4.000000,4.000000,4.000000,4.000000,100.000000,,,,,,,,,,,,,,,,,,,,,,,,,,,,,,,,,,,,,,,,,,,,,,,,,,,,,,,,,,,,,,,,,,,,,,,,,,,,,,,,,,,,,,,,,,,,,,,,,,,,,,,,,,,,,,,,,
1606525020.949781,78.000000,0.000000,4237.820313,4201.794922,4225.000000,4196.922852,4213.461426,4222.820313,4210.512695,4202.948730,4202.820313,4192.307617,4211.282227,4235.384766,4202.692383,4208.589844,3470.000000,2.000000,,,,0.000000,4.000000,4.000000,4.000000,4.000000,4.000000,4.000000,4.000000,4.000000,4.000000,4.000000,4.000000,4.000000,4.000000,4.000000,100.000000,,,,,,,,,,,,,,,,,,,,,,,,,,,,,,,,,,,,,,,,,,,,,,,,,,,,,,,,,,,,,,,,,,,,,,,,,,,,,,,,,,,,,,,,,,,,,,,,,,,,,,,,,,,,,,,,,
1606525020.957777,79.000000,0.000000,4247.051270,4202.820313,4236.666504,4208.333496,4214.871582,4217.436035,4214.871582,4219.358887,4215.512695,4213.333496,4218.461426,4248.205078,4209.230957,4218.589844,3523.000000,2.000000,,,,0.000000,4.000000,4.000000,4.000000,4.000000,4.000000,4.000000,4.000000,4.000000,4.000000,4.000000,4.000000,4.000000,4.000000,4.000000,100.000000,,,,,,,,,,,,,,,,,,,,,,,,,,,,,,,,,,,,,,,,,,,,3.787760,2.292881,0.618481,0.537770,0.371648,9.177960,4.587203,2.435024,0.739269,0.987392,2.883985,1.995171,0.413007,0.548995,0.586837,1.511584,1.669224,1.278795,0.428704,0.484325,1.776586,1.026769,0.745084,0.722768,0.613805,0.753510,0.532694,0.725846,0.324987,0.379482,1.610670,0.853170,0.665761,0.424926,0.529637,2.434096,1.963275,0.855971,0.658497,0.789340,3.214955,1.232750,1.002505,0.536251,0.581191,6.624806,2.190706,1.209000,0.724490,1.064013,8.183021,2.497530,1.217224,0.829208,0.695560,4.045762,2.594339,0.727959,0.660600,0.431875,13.298332,3.801383,1.531972,0.797060,0.743616,8.875387,3.564998,1.184761,0.936319,0.694817
1606525020.965673,80.000000,0.000000,4234.487305,4197.436035,4229.615234,4204.230957,4202.820313,4218.461426,4214.230957,4220.512695,4210.384766,4221.922852,4222.692383,4250.000000,4213.333496,4221.282227,3450.000000,2.000000,,,,0.000000,4.000000,4.000000,4.000000,4.000000,4.000000,4.000000,4.000000,4.000000,4.000000,4.000000,4.000000,4.000000,4.000000,4.000000,100.000000,20.000000,0.000000,0.608170,-0.006836,-0.770020,0.192749,0.960952,-0.316899,-0.195315,-36.935989,-119.182114,6.878767,,,,,,,,,,,,,,,,,,,,,,,,,,,,,,,,,,,,,,,,,,,,,,,,,,,,,,,,,,,,,,,,,,,,,,,,,,,,,,,,,,,,,,,,,,,,,,,,,,,,,
1606525020.973568,81.000000,0.000000,4220.512695,4193.461426,4208.205078,4190.000000,4189.615234,4213.589844,4203.974121,4193.589844,4188.205078,4205.512695,4209.358887,4240.128418,4196.922852,4201.153809,3169.000000,2.000000,,,,0.000000,4.000000,4.000000,4.000000,4.000000,4.000000,4.000000,4.000000,4.000000,4.000000,4.000000,4.000000,4.000000,4.000000,4.000000,100.000000,,,,,,,,,,,,,,,,,,,,,,,,,,,,,,,,,,,,,,,,,,,,,,,,,,,,,,,,,,,,,,,,,,,,,,,,,,,,,,,,,,,,,,,,,,,,,,,,,,,,,,,,,,,,,,,,,
1606525020.981264,82.000000,0.000000,4225.512695,4206.410156,4208.461426,4201.153809,4198.333496,4201.538574,4195.641113,4183.589844,4187.948730,4201.922852,4207.563965,4234.743652,4196.666504,4200.512695,3470.000000,2.000000,,,,0.000000,4.000000,4.000000,4.000000,4.000000,4.000000,4.000000,4.000000,4.000000,4.000000,4.000000,4.000000,4.000000,4.000000,4.000000,100.000000,,,,,,,,,,,,,,,,,,,,,,,,,,,,,,,,,,,,,,,,,,,,,,,,,,,,,,,,,,,,,,,,,,,,,,,,,,,,,,,,,,,,,,,,,,,,,,,,,,,,,,,,,,,,,,,,,
1606525020.989060,83.000000,0.000000,4237.051270,4216.282227,4225.000000,4211.794922,4209.230957,4202.692383,4200.897461,4196.410156,4199.102539,4208.589844,4222.051270,4243.333496,4211.153809,4217.051270,3523.000000,2.000000,,,,0.000000,4.000000,4.000000,4.000000,4.000000,4.000000,4.000000,4.000000,4.000000,4.000000,4.000000,4.000000,4.000000,4.000000,4.000000,100.000000,,,,,,,,,,,,,,,,,,,,,,,,,,,,,,,,,,,,,,,,,,,,,,,,,,,,,,,,,,,,,,,,,,,,,,,,,,,,,,,,,,,,,,,,,,,,,,,,,,,,,,,,,,,,,,,,,
1606525020.996756,84.000000,0.000000,4227.820313,4202.692383,4218.589844,4198.589844,4205.641113,4208.589844,4199.358887,4192.820313,4195.769043,4208.974121,4226.025879,4245.384766,4211.794922,4219.487305,3450.000000,2.000000,,,,0.000000,4.000000,4.000000,4.000000,4.000000,4.000000,4.000000,4.000000,4.000000,4.000000,4.000000,4.000000,4.000000,4.000000,4.000000,100.000000,21.000000,0.000000,0.607236,-0.005005,-0.770264,0.194763,0.964370,-0.313481,-0.192874,-35.291065,-118.733498,5.682460,,,,,,,,,,,,,,,,,,,,,,,,,,,,,,,,,,,,,,,,,,,,,,,,,,,,,,,,,,,,,,,,,,,,,,,,,,,,,,,,,,,,,,,,,,,,,,,,,,,,,
1606525021.004452,85.000000,0.000000,4222.948730,4181.153809,4207.820313,4183.717773,4195.128418,4205.641113,4196.794922,4180.256348,4188.846191,4200.000000,4210.641113,4238.333496,4195.000000,4204.871582,3169.000000,2.000000,,,,0.000000,4.000000,4.000000,4.000000,4.000000,4.000000,4.000000,4.000000,4.000000,4.000000,4.000000,4.000000,4.000000,4.000000,4.000000,100.000000,,,,,,,,,,,,,,,,,,,,,,,,,,,,,,,,,,,,,,,,,,,,,,,,,,,,,,,,,,,,,,,,,,,,,,,,,,,,,,,,,,,,,,,,,,,,,,,,,,,,,,,,,,,,,,,,,
1606525021.012348,86.000000,0.000000,4215.512695,4193.846191,4207.563965,4190.256348,4194.871582,4201.282227,4207.563965,4190.256348,4200.897461,4200.000000,4209.358887,4233.717773,4190.256348,4203.333496,3470.000000,2.000000,,,,0.000000,4.000000,4.000000,4.000000,4.000000,4.000000,4.000000,4.000000,4.000000,4.000000,4.000000,4.000000,4.000000,4.000000,4.000000,100.000000,,,,,,,,,,,,,,,,,,,,,,,,,,,,,,,,,,,,,,,,,,,,,,,,,,,,,,,,,,,,,,,,,,,,,,,,,,,,,,,,,,,,,,,,,,,,,,,,,,,,,,,,,,,,,,,,,
1606525021.020343,87.000000,0.000000,4232.692383,4219.230957,4224.358887,4202.563965,4204.487305,4212.179688,4219.743652,4208.333496,4214.487305,4203.333496,4220.897461,4249.615234,4199.871582,4218.333496,3523.000000,2.000000,,,,0.000000,4.000000,4.000000,4.000000,4.000000,4.000000,4.000000,4.000000,4.000000,4.000000,4.000000,4.000000,4.000000,4.000000,4.000000,100.000000,,,,,,,,,,,,,,,,,,,,,,,,,,,,,,,,,,,,,,,,,,,,,,,,,,,,,,,,,,,,,,,,,,,,,,,,,,,,,,,,,,,,,,,,,,,,,,,,,,,,,,,,,,,,,,,,,
1606525021.028239,88.000000,0.000000,4240.897461,4217.563965,4229.743652,4204.102539,4208.205078,4204.102539,4212.563965,4207.307617,4219.871582,4213.205078,4217.307617,4252.179688,4203.846191,4226.666504,3450.000000,2.000000,,,,0.000000,4.000000,4.000000,4.000000,4.000000,4.000000,4.000000,4.000000,4.000000,4.000000,4.000000,4.000000,4.000000,4.000000,4.000000,100.000000,22.000000,0.000000,0.606755,-0.004089,-0.770386,0.195801,0.968277,-0.289067,-0.186526,-35.440605,-119.331657,5.532921,,,,,,,,,,,,,,,,,,,,,,,,,,,,,,,,,,,,,,,,,,,,,,,,,,,,,,,,,,,,,,,,,,,,,,,,,,,,,,,,,,,,,,,,,,,,,,,,,,,,,
1606525021.036135,89.000000,0.000000,4240.384766,4202.179688,4230.000000,4196.282227,4196.922852,4191.666504,4206.922852,4191.410156,4210.769043,4218.205078,4206.538574,4247.820313,4188.846191,4223.077148,3169.000000,2.000000,,,,0.000000,4.000000,4.000000,4.000000,4.000000,4.000000,4.000000,4.000000,4.000000,4.000000,4.000000,4.000000,4.000000,4.000000,4.000000,100.000000,,,,,,,,,,,,,,,,,,,,,,,,,,,,,,,,,,,,,,,,,,,,,,,,,,,,,,,,,,,,,,,,,,,,,,,,,,,,,,,,,,,,,,,,,,,,,,,,,,,,,,,,,,,,,,,,,
1606525021.044030,90.000000,0.000000,4233.205078,4201.794922,4229.230957,4200.384766,4197.692383,4200.256348,4210.512695,4187.436035,4204.230957,4217.179688,4213.205078,4247.820313,4180.256348,4223.205078,3470.000000,2.000000,,,,0.000000,4.000000,4.000000,4.000000,4.000000,4.000000,4.000000,4.000000,4.000000,4.000000,4.000000,4.000000,4.000000,4.000000,4.000000,100.000000,,,,,,,,,,,,,,,,,,,,,,,,,,,,,,,,,,,,,,,,,,,,,,,,,,,,,,,,,,,,,,,,,,,,,,,,,,,,,,,,,,,,,,,,,,,,,,,,,,,,,,,,,,,,,,,,,
1606525021.051826,91.000000,0.000000,4235.000000,4193.974121,4227.436035,4206.922852,4207.948730,4211.666504,4210.769043,4199.871582,4205.512695,4207.948730,4210.000000,4244.487305,4181.025879,4213.589844,3523.000000,2.000000,,,,0.000000,4.000000,4.000000,4.000000,4.000000,4.000000,4.000000,4.000000,4.000000,4.000000,4.000000,4.000000,4.000000,4.000000,4.000000,100.000000,,,,,,,,,,,,,,,,,,,,,,,,,,,,,,,,,,,,,,,,,,,,,,,,,,,,,,,,,,,,,,,,,,,,,,,,,,,,,,,,,,,,,,,,,,,,,,,,,,,,,,,,,,,,,,,,,
1606525021.059522,92.000000,0.000000,4219.871582,4185.769043,4214.358887,4203.717773,4203.077148,4197.563965,4208.077148,4198.974121,4202.436035,4199.871582,4200.641113,4234.358887,4181.794922,4197.051270,3450.000000,2.000000,,,,0.000000,4.000000,4.000000,4.000000,4.000000,4.000000,4.000000,4.000000,4.000000,4.000000,4.000000,4.000000,4.000000,4.000000,4.000000,100.000000,23.000000,0.000000,0.605582,-0.001831,-0.770630,0.198486,0.959487,-0.302739,-0.187991,-35.739681,-119.182114,6.878767,,,,,,,,,,,,,,,,,,,,,,,,,,,,,,,,,,,,,,,,,,,,,,,,,,,,,,,,,,,,,,,,,,,,,,,,,,,,,,,,,,,,,,,,,,,,,,,,,,,,,
1606525021.067218,93.000000,0.000000,4208.589844,4196.153809,4204.102539,4199.230957,4184.743652,4187.948730,4199.230957,4180.769043,4186.538574,4195.128418,4198.205078,4228.333496,4182.051270,4189.102539,3169.000000,2.000000,,,,0.000000,4.000000,4.000000,4.000000,4.000000,4.000000,4.000000,4.000000,4.000000,4.000000,4.000000,4.000000,4.000000,4.000000,4.000000,100.000000,,,,,,,,,,,,,,,,,,,,,,,,,,,,,,,,,,,,,,,,,,,,,,,,,,,,,,,,,,,,,,,,,,,,,,,,,,,,,,,,,,,,,,,,,,,,,,,,,,,,,,,,,,,,,,,,,
1606525021.074914,94.000000,0.000000,4210.000000,4212.051270,4202.179688,4201.794922,4186.153809,4190.769043,4188.846191,4175.256348,4182.051270,4190.769043,4198.205078,4220.512695,4185.256348,4187.820313,3470.000000,2.000000,,,,0.000000,4.000000,4.000000,4.000000,4.000000,4.000000,4.000000,4.000000,4.000000,4.000000,4.000000,4.000000,4.000000,4.000000,4.000000,100.000000,,,,,,,,,,,,,,,,,,,,,,,,,,,,,,,,,,,,,,,,,,,,,,,,,,,,,,,,,,,,,,,,,,,,,,,,,,,,,,,,,,,,,,,,,,,,,,,,,,,,,,,,,,,,,,,,,
1606525021.082510,95.000000,0.000000,4212.948730,4201.794922,4200.000000,4193.589844,4189.743652,4190.384766,4194.743652,4183.717773,4195.384766,4182.051270,4200.769043,4219.358887,4179.102539,4187.820313,3523.000000,2.000000,,,,0.000000,4.000000,4.000000,4.000000,4.000000,4.000000,4.000000,4.000000,4.000000,4.000000,4.000000,4.000000,4.000000,4.000000,4.000000,100.000000,,,,,,,,,,,,,,,,,,,,,,,,,,,,,,,,,,,,,,,,,,,,4.636788,2.657496,0.581115,0.558911,0.391227,9.916188,4.928391,2.659459,0.954556,0.883219,3.492024,2.067325,0.301136,0.526446,0.582558,1.558321,1.672976,1.174035,0.492461,0.461045,1.722643,0.940316,0.576732,0.742330,0.595055,0.836850,0.459520,0.623956,0.313375,0.412904,1.562577,0.892686,0.522271,0.420920,0.527058,1.902756,2.123877,0.827926,0.643156,0.721647,2.611670,1.308139,1.062227,0.533646,0.543080,5.720434,2.281792,1.367466,0.609787,1.259252,7.226343,2.349864,1.167578,0.804852,0.722885,4.021947,2.810131,0.695383,0.627286,0.438688,13.579175,4.046276,1.790061,0.809273,0.748137,9.931097,3.711748,1.126653,0.946842,0.687922
1606525021.090206,96.000000,0.000000,4214.230957,4180.128418,4197.051270,4182.307617,4188.846191,4192.948730,4207.948730,4185.897461,4198.205078,4176.025879,4204.358887,4225.769043,4168.333496,4188.205078,3450.000000,2.000000,,,,0.000000,4.000000,4.000000,4.000000,4.000000,4.000000,4.000000,4.000000,4.000000,4.000000,4.000000,4.000000,4.000000,4.000000,4.000000,100.000000,24.000000,0.000000,0.604309,0.000427,-0.770935,0.201172,0.958999,-0.320806,-0.198245,-36.786449,-119.032578,5.532921,,,,,,,,,,,,,,,,,,,,,,,,,,,,,,,,,,,,,,,,,,,,,,,,,,,,,,,,,,,,,,,,,,,,,,,,,,,,,,,,,,,,,,,,,,,,,,,,,,,,,
1606525021.097902,97.000000,0.000000,4205.000000,4176.666504,4186.538574,4180.512695,4195.000000,4195.128418,4197.948730,4175.000000,4186.153809,4183.589844,4196.538574,4217.563965,4172.307617,4181.922852,3169.000000,2.000000,,,,0.000000,4.000000,4.000000,4.000000,4.000000,4.000000,4.000000,4.000000,4.000000,4.000000,4.000000,4.000000,4.000000,4.000000,4.000000,100.000000,,,,,,,,,,,,,,,,,,,,,,,,,,,,,,,,,,,,,,,,,,,,,,,,,,,,,,,,,,,,,,,,,,,,,,,,,,,,,,,,,,,,,,,,,,,,,,,,,,,,,,,,,,,,,,,,,
1606525021.105598,98.000000,0.000000,4191.666504,4177.436035,4183.846191,4181.282227,4201.922852,4190.000000,4187.820313,4169.358887,4183.717773,4196.794922,4187.563965,4209.358887,4176.282227,4169.358887,3470.000000,2.000000,,,,0.000000,4.000000,4.000000,4.000000,4.000000,4.000000,4.000000,4.000000,4.000000,4.000000,4.000000,4.000000,4.000000,4.000000,4.000000,100.000000,,,,,,,,,,,,,,,,,,,,,,,,,,,,,,,,,,,,,,,,,,,,,,,,,,,,,,,,,,,,,,,,,,,,,,,,,,,,,,,,,,,,,,,,,,,,,,,,,,,,,,,,,,,,,,,,,
1606525021.113593,99.000000,0.000000,4172.563965,4160.000000,4179.358887,4181.025879,4204.871582,4183.717773,4189.743652,4173.205078,4191.282227,4199.871582,4184.487305,4197.436035,4154.358887,4153.717773,3523.000000,2.000000,,,,0.000000,4.000000,4.000000,4.000000,4.000000,4.000000,4.000000,4.000000,4.000000,4.000000,4.000000,4.000000,4.000000,4.000000,4.000000,100.000000,,,,,,,,,,,,,,,,,,,,,,,,,,,,,,,,,,,,,,,,,,,,,,,,,,,,,,,,,,,,,,,,,,,,,,,,,,,,,,,,,,,,,,,,,,,,,,,,,,,,,,,,,,,,,,,,,
1606525021.121489,100.000000,0.000000,4170.000000,4144.102539,4172.692383,4181.153809,4208.974121,4197.820313,4197.179688,4175.641113,4187.436035,4188.589844,4171.410156,4185.769043,4122.051270,4132.692383,3450.000000,2.000000,,,,0.000000,4.000000,4.000000,4.000000,4.000000,4.000000,4.000000,4.000000,4.000000,4.000000,4.000000,4.000000,4.000000,4.000000,4.000000,100.000000,25.000000,0.000000,0.602571,0.003784,-0.771240,0.205139,0.953140,-0.314946,-0.185061,-36.786449,-119.780273,6.579690,,,,,,,,,,,,,,,,,,,,,,,,,,,,,,,,,,,,,,,,,,,,,,,,,,,,,,,,,,,,,,,,,,,,,,,,,,,,,,,,,,,,,,,,,,,,,,,,,,,,,
1606525021.129385,101.000000,0.000000,4161.538574,4152.179688,4166.538574,4179.743652,4222.692383,4208.077148,4198.717773,4172.436035,4184.102539,4181.025879,4154.358887,4180.000000,4102.436035,4116.538574,3169.000000,2.000000,,,,0.000000,4.000000,4.000000,4.000000,4.000000,4.000000,4.000000,4.000000,4.000000,4.000000,4.000000,4.000000,4.000000,4.000000,4.000000,100.000000,,,,,,,,,,,,,,,,,,,,,,,,,,,,,,,,,,,,,,,,,,,,,,,,,,,,,,,,,,,,,,,,,,,,,,,,,,,,,,,,,,,,,,,,,,,,,,,,,,,,,,,,,,,,,,,,,
1606525021.137280,102.000000,0.000000,4165.769043,4152.307617,4177.436035,4173.461426,4230.128418,4203.974121,4202.307617,4173.846191,4191.410156,4178.461426,4145.641113,4183.846191,4085.641113,4106.410156,3470.000000,2.000000,,,,0.000000,4.000000,4.000000,4.000000,4.000000,4.000000,4.000000,4.000000,4.000000,4.000000,4.000000,4.000000,4.000000,4.000000,4.000000,100.000000,,,,,,,,,,,,,,,,,,,,,,,,,,,,,,,,,,,,,,,,,,,,,,,,,,,,,,,,,,,,,,,,,,,,,,,,,,,,,,,,,,,,,,,,,,,,,,,,,,,,,,,,,,,,,,,,,
1606525021.145276,103.000000,0.000000,4162.820313,4143.077148,4177.820313,4179.743652,4227.307617,4193.846191,4197.436035,4169.615234,4188.589844,4176.410156,4146.282227,4174.230957,4082.820557,4105.641113,3523.000000,2.000000,,,,0.000000,4.000000,4.000000,4.000000,4.000000,4.000000,4.000000,4.000000,4.000000,4.000000,4.000000,4.000000,4.000000,4.000000,4.000000,100.000000,,,,,,,,,,,,,,,,,,,,,,,,,,,,,,,,,,,,,,,,,,,,,,,,,,,,,,,,,,,,,,,,,,,,,,,,,,,,,,,,,,,,,,,,,,,,,,,,,,,,,,,,,,,,,,,,,
1606525021.153172,104.000000,0.000000,4170.897461,4147.051270,4183.205078,4190.512695,4217.820313,4198.846191,4190.256348,4155.769043,4172.436035,4174.487305,4149.230957,4178.077148,4099.743652,4119.487305,3450.000000,2.000000,,,,0.000000,4.000000,4.000000,4.000000,4.000000,4.000000,4.000000,4.000000,4.000000,4.000000,4.000000,4.000000,4.000000,4.000000,4.000000,100.000000,26.000000,0.000000,0.601538,0.005493,-0.771301,0.207886,0.958999,-0.326177,-0.199710,-36.038757,-118.733498,5.682460,,,,,,,,,,,,,,,,,,,,,,,,,,,,,,,,,,,,,,,,,,,,,,,,,,,,,,,,,,,,,,,,,,,,,,,,,,,,,,,,,,,,,,,,,,,,,,,,,,,,,
1606525021.161067,105.000000,0.000000,4174.743652,4168.333496,4195.641113,4197.692383,4222.051270,4205.000000,4191.282227,4151.282227,4173.589844,4183.846191,4158.333496,4190.897461,4112.563965,4138.974121,3169.000000,2.000000,,,,0.000000,4.000000,4.000000,4.000000,4.000000,4.000000,4.000000,4.000000,4.000000,4.000000,4.000000,4.000000,4.000000,4.000000,4.000000,100.000000,,,,,,,,,,,,,,,,,,,,,,,,,,,,,,,,,,,,,,,,,,,,,,,,,,,,,,,,,,,,,,,,,,,,,,,,,,,,,,,,,,,,,,,,,,,,,,,,,,,,,,,,,,,,,,,,,
1606525021.168963,106.000000,0.000000,4182.307617,4171.410156,4193.461426,4192.692383,4226.538574,4210.641113,4198.205078,4154.615234,4172.436035,4176.538574,4159.102539,4193.846191,4095.000000,4133.461426,3470.000000,2.000000,,,,0.000000,4.000000,4.000000,4.000000,4.000000,4.000000,4.000000,4.000000,4.000000,4.000000,4.000000,4.000000,4.000000,4.000000,4.000000,100.000000,,,,,,,,,,,,,,,,,,,,,,,,,,,,,,,,,,,,,,,,,,,,,,,,,,,,,,,,,,,,,,,,,,,,,,,,,,,,,,,,,,,,,,,,,,,,,,,,,,,,,,,,,,,,,,,,,
1606525021.176959,107.000000,0.000000,4171.666504,4151.025879,4173.077148,4181.666504,4215.000000,4210.897461,4196.666504,4156.025879,4164.358887,4163.205078,4148.461426,4181.666504,4078.205078,4111.922852,3523.000000,2.000000,,,,0.000000,4.000000,4.000000,4.000000,4.000000,4.000000,4.000000,4.000000,4.000000,4.000000,4.000000,4.000000,4.000000,4.000000,4.000000,100.000000,,,,,,,,,,,,,,,,,,,,,,,,,,,,,,,,,,,,,,,,,,,,,,,,,,,,,,,,,,,,,,,,,,,,,,,,,,,,,,,,,,,,,,,,,,,,,,,,,,,,,,,,,,,,,,,,,
1606525021.184854,108.000000,0.000000,4167.692383,4138.846191,4171.282227,4179.615234,4197.307617,4207.692383,4189.102539,4144.358887,4155.000000,4153.461426,4134.487305,4171.410156,4081.538574,4104.358887,3450.000000,2.000000,,,,0.000000,4.000000,4.000000,4.000000,4.000000,4.000000,4.000000,4.000000,4.000000,4.000000,4.000000,4.000000,4.000000,4.000000,4.000000,100.000000,27.000000,0.000000,0.600392,0.007263,-0.771484,0.210449,0.954116,-0.339361,-0.195315,-35.739681,-118.733498,4.934768,,,,,,,,,,,,,,,,,,,,,,,,,,,,,,,,,,,,,,,,,,,,,,,,,,,,,,,,,,,,,,,,,,,,,,,,,,,,,,,,,,,,,,,,,,,,,,,,,,,,,
1606525021.192750,109.000000,0.000000,4178.205078,4147.948730,4182.307617,4185.128418,4202.436035,4211.794922,4199.230957,4143.846191,4159.230957,4154.615234,4141.282227,4175.384766,4090.641113,4116.282227,3169.000000,2.000000,,,,0.000000,4.000000,4.000000,4.000000,4.000000,4.000000,4.000000,4.000000,4.000000,4.000000,4.000000,4.000000,4.000000,4.000000,4.000000,100.000000,,,,,,,,,,,,,,,,,,,,,,,,,,,,,,,,,,,,,,,,,,,,,,,,,,,,,,,,,,,,,,,,,,,,,,,,,,,,,,,,,,,,,,,,,,,,,,,,,,,,,,,,,,,,,,,,,
1606525021.200646,110.000000,0.000000,4195.384766,4144.615234,4190.384766,4178.717773,4214.230957,4220.000000,4211.025879,4163.974121,4170.000000,4166.025879,4153.846191,4188.077148,4090.641113,4121.025879,3470.000000,2.000000,,,,0.000000,4.000000,4.000000,4.000000,4.000000,4.000000,4.000000,4.000000,4.000000,4.000000,4.000000,4.000000,4.000000,4.000000,4.000000,100.000000,,,,,,,,,,,,,,,,,,,,,,,,,,,,,,,,,,,,,,,,,,,,,,,,,,,,,,,,,,,,,,,,,,,,,,,,,,,,,,,,,,,,,,,,,,,,,,,,,,,,,,,,,,,,,,,,,
1606525021.208442,111.000000,0.000000,4204.743652,4136.153809,4200.384766,4175.897461,4211.922852,4215.641113,4212.820313,4175.769043,4174.743652,4177.948730,4157.179688,4197.948730,4100.000000,4124.743652,3523.000000,2.000000,,,,0.000000,4.000000,4.000000,4.000000,4.000000,4.000000,4.000000,4.000000,4.000000,4.000000,4.000000,4.000000,4.000000,4.000000,4.000000,100.000000,,,,,,,,,,,,,,,,,,,,,,,,,,,,,,,,,,,,,,,,,,,,5.740851,2.977515,0.693842,0.609011,0.428650,10.624995,5.241760,3.479544,1.303340,0.757690,4.120119,1.939138,0.257654,0.506381,0.579366,1.657345,1.526176,1.264202,0.558247,0.439882,1.726068,0.924948,0.485262,0.721536,0.557069,1.019737,0.397985,0.573394,0.302202,0.441640,1.455157,0.871288,0.412040,0.403440,0.515941,1.541447,2.149662,0.841338,0.632048,0.674149,2.054800,1.328009,1.156182,0.521914,0.514955,4.520326,2.143858,1.695534,0.522391,1.486397,6.529019,2.083431,1.113819,0.780112,0.801999,4.111298,2.805473,0.675519,0.614533,0.465919,14.199886,4.289308,2.270601,0.866383,0.801551,11.420311,3.731117,1.255815,1.029696,0.706605
1606525021.216337,112.000000,0.000000,4194.102539,4149.102539,4196.282227,4187.563965,4212.051270,4209.102539,4211.410156,4167.307617,4166.410156,4172.820313,4154.358887,4193.846191,4107.179688,4133.589844,3450.000000,2.000000,,,,0.000000,4.000000,4.000000,4.000000,4.000000,4.000000,4.000000,4.000000,4.000000,4.000000,4.000000,4.000000,4.000000,4.000000,4.000000,100.000000,28.000000,0.000000,0.599481,0.008911,-0.771606,0.212524,0.959976,-0.349615,-0.198734,-36.786449,-118.583961,6.280613,,,,,,,,,,,,,,,,,,,,,,,,,,,,,,,,,,,,,,,,,,,,,,,,,,,,,,,,,,,,,,,,,,,,,,,,,,,,,,,,,,,,,,,,,,,,,,,,,,,,,
1606525021.224233,113.000000,0.000000,4177.563965,4156.410156,4176.025879,4186.410156,4216.410156,4211.666504,4207.563965,4164.230957,4161.666504,4152.948730,4147.563965,4185.512695,4093.333252,4126.922852,3169.000000,2.000000,,,,0.000000,4.000000,4.000000,4.000000,4.000000,4.000000,4.000000,4.000000,4.000000,4.000000,4.000000,4.000000,4.000000,4.000000,4.000000,100.000000,,,,,,,,,,,,,,,,,,,,,,,,,,,,,,,,,,,,,,,,,,,,,,,,,,,,,,,,,,,,,,,,,,,,,,,,,,,,,,,,,,,,,,,,,,,,,,,,,,,,,,,,,,,,,,,,,
1606525021.231929,114.000000,0.000000,4167.051270,4150.256348,4166.794922,4180.000000,4219.230957,4210.384766,4203.077148,4183.077148,4178.589844,4162.179688,4153.461426,4182.563965,4093.461426,4120.128418,3470.000000,2.000000,,,,0.000000,4.000000,4.000000,4.000000,4.000000,4.000000,4.000000,4.000000,4.000000,4.000000,4.000000,4.000000,4.000000,4.000000,4.000000,100.000000,,,,,,,,,,,,,,,,,,,,,,,,,,,,,,,,,,,,,,,,,,,,,,,,,,,,,,,,,,,,,,,,,,,,,,,,,,,,,,,,,,,,,,,,,,,,,,,,,,,,,,,,,,,,,,,,,
1606525021.239725,115.000000,0.000000,4173.333496,4149.102539,4178.333496,4184.743652,4218.717773,4207.692383,4210.256348,4190.000000,4183.461426,4181.025879,4160.384766,4184.743652,4103.717773,4120.384766,3523.000000,2.000000,,,,0.000000,4.000000,4.000000,4.000000,4.000000,4.000000,4.000000,4.000000,4.000000,4.000000,4.000000,4.000000,4.000000,4.000000,4.000000,100.000000,,,,,,,,,,,,,,,,,,,,,,,,,,,,,,,,,,,,,,,,,,,,,,,,,,,,,,,,,,,,,,,,,,,,,,,,,,,,,,,,,,,,,,,,,,,,,,,,,,,,,,,,,,,,,,,,,
1606525021.247421,116.000000,0.000000,4168.846191,4146.282227,4176.025879,4184.358887,4214.487305,4205.128418,4206.153809,4168.333496,4169.102539,4166.025879,4154.487305,4179.487305,4095.384521,4115.769043,3450.000000,2.000000,,,,0.000000,4.000000,4.000000,4.000000,4.000000,4.000000,4.000000,4.000000,4.000000,4.000000,4.000000,4.000000,4.000000,4.000000,4.000000,100.000000,29.000000,0.000000,0.598713,0.010376,-0.771729,0.214172,0.956558,-0.331060,-0.186526,-35.739681,-119.481194,6.430152,,,,,,,,,,,,,,,,,,,,,,,,,,,,,,,,,,,,,,,,,,,,,,,,,,,,,,,,,,,,,,,,,,,,,,,,,,,,,,,,,,,,,,,,,,,,,,,,,,,,,
1606525021.255117,117.000000,0.000000,4177.307617,4136.666504,4177.307617,4178.589844,4207.436035,4205.769043,4195.769043,4150.897461,4162.051270,4144.743652,4152.179688,4187.051270,4089.358887,4113.589844,3169.000000,2.000000,,,,0.000000,4.000000,4.000000,4.000000,4.000000,4.000000,4.000000,4.000000,4.000000,4.000000,4.000000,4.000000,4.000000,4.000000,4.000000,100.000000,,,,,,,,,,,,,,,,,,,,,,,,,,,,,,,,,,,,,,,,,,,,,,,,,,,,,,,,,,,,,,,,,,,,,,,,,,,,,,,,,,,,,,,,,,,,,,,,,,,,,,,,,,,,,,,,,
1606525021.262812,118.000000,0.000000,4176.922852,4140.512695,4177.563965,4181.538574,4207.692383,4204.102539,4198.077148,4155.512695,4170.256348,4161.922852,4165.256348,4192.051270,4102.820313,4122.820313,3470.000000,2.000000,,,,0.000000,4.000000,4.000000,4.000000,4.000000,4.000000,4.000000,4.000000,4.000000,4.000000,4.000000,4.000000,4.000000,4.000000,4.000000,100.000000,,,,,,,,,,,,,,,,,,,,,,,,,,,,,,,,,,,,,,,,,,,,,,,,,,,,,,,,,,,,,,,,,,,,,,,,,,,,,,,,,,,,,,,,,,,,,,,,,,,,,,,,,,,,,,,,,
1606525021.270608,119.000000,0.000000,4170.897461,4141.153809,4173.205078,4178.589844,4204.230957,4206.666504,4200.769043,4155.641113,4167.948730,4171.153809,4161.410156,4185.000000,4096.282227,4118.205078,3523.000000,2.000000,,,,0.000000,4.000000,4.000000,4.000000,4.000000,4.000000,4.000000,4.000000,4.000000,4.000000,4.000000,4.000000,4.000000,4.000000,4.000000,100.000000,,,,,,,,,,,,,,,,,,,,,,,,,,,,,,,,,,,,,,,,,,,,,,,,,,,,,,,,,,,,,,,,,,,,,,,,,,,,,,,,,,,,,,,,,,,,,,,,,,,,,,,,,,,,,,,,,
1606525021.278304,120.000000,0.000000,4162.820313,4143.205078,4166.794922,4177.948730,4211.282227,4203.205078,4189.615234,4149.871582,4168.717773,4167.563965,4157.436035,4177.692383,4089.358887,4116.153809,3450.000000,2.000000,,,,0.000000,4.000000,4.000000,4.000000,4.000000,4.000000,4.000000,4.000000,4.000000,4.000000,4.000000,4.000000,4.000000,4.000000,4.000000,100.000000,30.000000,0.000000,0.598486,0.010864,-0.771729,0.214783,0.959487,-0.334478,-0.191409,-36.786449,-119.032578,5.532921,,,,,,,,,,,,,,,,,,,,,,,,,,,,,,,,,,,,,,,,,,,,,,,,,,,,,,,,,,,,,,,,,,,,,,,,,,,,,,,,,,,,,,,,,,,,,,,,,,,,,
1606525021.286000,121.000000,0.000000,4179.487305,4155.000000,4177.948730,4185.000000,4224.230957,4206.282227,4189.743652,4164.615234,4184.230957,4179.871582,4175.000000,4188.205078,4103.717773,4131.153809,3169.000000,2.000000,,,,0.000000,4.000000,4.000000,4.000000,4.000000,4.000000,4.000000,4.000000,4.000000,4.000000,4.000000,4.000000,4.000000,4.000000,4.000000,100.000000,,,,,,,,,,,,,,,,,,,,,,,,,,,,,,,,,,,,,,,,,,,,,,,,,,,,,,,,,,,,,,,,,,,,,,,,,,,,,,,,,,,,,,,,,,,,,,,,,,,,,,,,,,,,,,,,,
1606525021.293696,122.000000,0.000000,4178.205078,4159.102539,4180.384766,4188.461426,4222.563965,4207.948730,4196.538574,4173.461426,4190.256348,4189.743652,4174.615234,4184.102539,4107.948730,4134.358887,3470.000000,2.000000,,,,0.000000,4.000000,4.000000,4.000000,4.000000,4.000000,4.000000,4.000000,4.000000,4.000000,4.000000,4.000000,4.000000,4.000000,4.000000,100.000000,,,,,,,,,,,,,,,,,,,,,,,,,,,,,,,,,,,,,,,,,,,,,,,,,,,,,,,,,,,,,,,,,,,,,,,,,,,,,,,,,,,,,,,,,,,,,,,,,,,,,,,,,,,,,,,,,
1606525021.301492,123.000000,0.000000,4176.025879,4150.384766,4176.922852,4182.820313,4214.358887,4208.846191,4197.179688,4158.717773,4178.461426,4180.641113,4154.230957,4177.051270,4098.461426,4120.897461,3523.000000,2.000000,,,,0.000000,4.000000,4.000000,4.000000,4.000000,4.000000,4.000000,4.000000,4.000000,4.000000,4.000000,4.000000,4.000000,4.000000,4.000000,100.000000,,,,,,,,,,,,,,,,,,,,,,,,,,,,,,,,,,,,,,,,,,,,,,,,,,,,,,,,,,,,,,,,,,,,,,,,,,,,,,,,,,,,,,,,,,,,,,,,,,,,,,,,,,,,,,,,,
1606525021.309188,124.000000,0.000000,4186.153809,4159.230957,4189.743652,4193.333496,4229.358887,4209.871582,4203.589844,4163.974121,4181.922852,4184.871582,4171.153809,4195.000000,4111.922852,4126.794922,3450.000000,2.000000,,,,0.000000,4.000000,4.000000,4.000000,4.000000,4.000000,4.000000,4.000000,4.000000,4.000000,4.000000,4.000000,4.000000,4.000000,4.000000,100.000000,31.000000,0.000000,0.597950,0.011780,-0.771790,0.216003,0.954604,-0.328130,-0.195804,-36.487373,-119.929810,6.878767,,,,,,,,,,,,,,,,,,,,,,,,,,,,,,,,,,,,,,,,,,,,,,,,,,,,,,,,,,,,,,,,,,,,,,,,,,,,,,,,,,,,,,,,,,,,,,,,,,,,,
1606525021.316884,125.000000,0.000000,4192.820313,4170.512695,4198.846191,4203.589844,4235.897461,4211.666504,4211.666504,4185.641113,4196.410156,4195.769043,4194.743652,4207.307617,4120.256348,4140.512695,3169.000000,2.000000,,,,0.000000,4.000000,4.000000,4.000000,4.000000,4.000000,4.000000,4.000000,4.000000,4.000000,4.000000,4.000000,4.000000,4.000000,4.000000,100.000000,,,,,,,,,,,,,,,,,,,,,,,,,,,,,,,,,,,,,,,,,,,,,,,,,,,,,,,,,,,,,,,,,,,,,,,,,,,,,,,,,,,,,,,,,,,,,,,,,,,,,,,,,,,,,,,,,
1606525021.324580,126.000000,0.000000,4182.307617,4166.666504,4185.384766,4195.128418,4225.384766,4213.077148,4211.282227,4186.410156,4199.230957,4198.846191,4182.307617,4191.922852,4107.563965,4134.487305,3470.000000,2.000000,,,,0.000000,4.000000,4.000000,4.000000,4.000000,4.000000,4.000000,4.000000,4.000000,4.000000,4.000000,4.000000,4.000000,4.000000,4.000000,100.000000,,,,,,,,,,,,,,,,,,,,,,,,,,,,,,,,,,,,,,,,,,,,,,,,,,,,,,,,,,,,,,,,,,,,,,,,,,,,,,,,,,,,,,,,,,,,,,,,,,,,,,,,,,,,,,,,,
1606525021.332375,127.000000,0.000000,4172.307617,4155.897461,4169.871582,4180.897461,4217.820313,4209.615234,4202.051270,4167.948730,4187.820313,4188.589844,4163.461426,4173.846191,4098.846191,4118.333496,51.000000,2.000000,,,,0.000000,4.000000,4.000000,4.000000,4.000000,4.000000,4.000000,4.000000,4.000000,4.000000,4.000000,4.000000,4.000000,4.000000,4.000000,100.000000,,,,,,,,,,,,,,,,,,,,,,,,,,,,,,,,,,,,,,,,,,,,6.963614,3.207840,0.919069,0.687505,0.472918,11.336074,5.476777,4.690368,1.719716,0.647255,4.719608,1.677911,0.286946,0.506511,0.578781,1.820725,1.301854,1.525052,0.615391,0.427250,1.807827,1.045435,0.481100,0.670849,0.515457,1.269773,0.356677,0.542262,0.291891,0.457314,1.349809,0.824401,0.339485,0.380693,0.496939,1.515702,2.004744,0.885789,0.625676,0.660864,1.666850,1.281604,1.265411,0.509141,0.498822,3.390617,1.833756,2.108441,0.464990,1.678404,6.234392,1.785230,1.064517,0.756271,0.905801,4.347651,2.565118,0.663332,0.630447,0.503023,15.091464,4.559042,2.848655,0.962341,0.888752,13.081029,3.635864,1.524931,1.157082,0.743030
1606525021.340071,0.000000,0.000000,4176.410156,4156.666504,4174.615234,4177.563965,4218.846191,4206.922852,4205.512695,4170.512695,4183.846191,4176.922852,4164.358887,4177.692383,4099.102539,4116.538574,3323.000000,2.000000,,,,0.000000,4.000000,4.000000,4.000000,4.000000,4.000000,4.000000,4.000000,4.000000,4.000000,4.000000,4.000000,4.000000,4.000000,4.000000,100.000000,0.000000,0.000000,0.597508,0.012756,-0.771912,0.216736,0.946303,-0.339849,-0.199710,-35.889221,-118.284889,5.084306,,,,,,,,,,,,,,,,,,,,,,,,,,,,,,,,,,,,,,,,,,,,,,,,,,,,,,,,,,,,,,,,,,,,,,,,,,,,,,,,,,,,,,,,,,,,,,,,,,,,,
1606525021.347967,1.000000,0.000000,4171.922852,4164.102539,4181.922852,4182.692383,4224.487305,4208.589844,4213.974121,4186.538574,4191.666504,4176.794922,4169.230957,4183.077148,4103.717773,4127.948730,3513.000000,2.000000,,,,0.000000,4.000000,4.000000,4.000000,4.000000,4.000000,4.000000,4.000000,4.000000,4.000000,4.000000,4.000000,4.000000,4.000000,4.000000,100.000000,,,,,,,,,,,,,,,,,,,,,,,,,,,,,,,,,,,,,,,,,,,,,,,,,,,,,,,,,,,,,,,,,,,,,,,,,,,,,,,,,,,,,,,,,,,,,,,,,,,,,,,,,,,,,,,,,
1606525021.355863,2.000000,0.000000,4169.102539,4153.717773,4185.897461,4181.282227,4227.692383,4214.358887,4220.256348,4192.948730,4195.769043,4178.077148,4172.307617,4191.410156,4108.974121,4132.179688,3173.000000,2.000000,,,,0.000000,4.000000,4.000000,4.000000,4.000000,4.000000,4.000000,4.000000,4.000000,4.000000,4.000000,4.000000,4.000000,4.000000,4.000000,100.000000,,,,,,,,,,,,,,,,,,,,,,,,,,,,,,,,,,,,,,,,,,,,,,,,,,,,,,,,,,,,,,,,,,,,,,,,,,,,,,,,,,,,,,,,,,,,,,,,,,,,,,,,,,,,,,,,,
1606525021.363858,3.000000,0.000000,4164.102539,4145.256348,4182.051270,4185.000000,4230.128418,4214.358887,4221.025879,4194.358887,4197.948730,4185.641113,4178.333496,4194.743652,4115.769043,4133.974121,3589.000000,2.000000,,,,0.000000,4.000000,4.000000,4.000000,4.000000,4.000000,4.000000,4.000000,4.000000,4.000000,4.000000,4.000000,4.000000,4.000000,4.000000,100.000000,,,,,,,,,,,,,,,,,,,,,,,,,,,,,,,,,,,,,,,,,,,,,,,,,,,,,,,,,,,,,,,,,,,,,,,,,,,,,,,,,,,,,,,,,,,,,,,,,,,,,,,,,,,,,,,,,
1606525021.371754,4.000000,0.000000,4171.794922,4161.153809,4183.974121,4192.179688,4228.974121,4218.589844,4223.974121,4197.692383,4201.282227,4196.538574,4181.282227,4191.025879,4125.512695,4138.717773,3552.000000,2.000000,,,,0.000000,4.000000,4.000000,4.000000,4.000000,4.000000,4.000000,4.000000,4.000000,4.000000,4.000000,4.000000,4.000000,4.000000,4.000000,100.000000,1.000000,0.000000,0.597610,0.012695,-0.771851,0.216675,0.967300,-0.343267,-0.203128,-36.487373,-118.733498,7.177844,,,,,,,,,,,,,,,,,,,,,,,,,,,,,,,,,,,,,,,,,,,,,,,,,,,,,,,,,,,,,,,,,,,,,,,,,,,,,,,,,,,,,,,,,,,,,,,,,,,,,
1606525021.379650,5.000000,0.000000,4168.077148,4183.333496,4184.358887,4195.384766,4230.256348,4218.205078,4224.102539,4205.128418,4209.615234,4206.922852,4185.641113,4186.282227,4134.358887,4146.282227,2633.000000,2.000000,,,,0.000000,4.000000,4.000000,4.000000,4.000000,4.000000,4.000000,4.000000,4.000000,4.000000,4.000000,4.000000,4.000000,4.000000,4.000000,100.000000,,,,,,,,,,,,,,,,,,,,,,,,,,,,,,,,,,,,,,,,,,,,,,,,,,,,,,,,,,,,,,,,,,,,,,,,,,,,,,,,,,,,,,,,,,,,,,,,,,,,,,,,,,,,,,,,,
1606525021.387545,6.000000,0.000000,4171.410156,4180.256348,4188.461426,4195.897461,4227.563965,4210.897461,4215.128418,4208.846191,4204.615234,4196.025879,4185.256348,4195.512695,4124.487305,4144.615234,3300.000000,2.000000,,,,0.000000,4.000000,4.000000,4.000000,4.000000,4.000000,4.000000,4.000000,4.000000,4.000000,4.000000,4.000000,4.000000,4.000000,4.000000,100.000000,,,,,,,,,,,,,,,,,,,,,,,,,,,,,,,,,,,,,,,,,,,,,,,,,,,,,,,,,,,,,,,,,,,,,,,,,,,,,,,,,,,,,,,,,,,,,,,,,,,,,,,,,,,,,,,,,
1606525021.395541,7.000000,0.000000,4162.051270,4157.051270,4180.897461,4196.025879,4215.384766,4196.153809,4196.666504,4203.846191,4189.102539,4175.769043,4180.769043,4189.230957,4117.692383,4134.615234,3291.000000,2.000000,,,,0.000000,4.000000,4.000000,4.000000,4.000000,4.000000,4.000000,4.000000,4.000000,4.000000,4.000000,4.000000,4.000000,4.000000,4.000000,100.000000,,,,,,,,,,,,,,,,,,,,,,,,,,,,,,,,,,,,,,,,,,,,,,,,,,,,,,,,,,,,,,,,,,,,,,,,,,,,,,,,,,,,,,,,,,,,,,,,,,,,,,,,,,,,,,,,,
1606525021.403437,8.000000,0.000000,4170.384766,4145.769043,4184.871582,4202.436035,4212.692383,4200.384766,4202.563965,4203.717773,4185.384766,4177.948730,4179.358887,4188.461426,4132.436035,4141.410156,3319.000000,2.000000,,,,0.000000,4.000000,4.000000,4.000000,4.000000,4.000000,4.000000,4.000000,4.000000,4.000000,4.000000,4.000000,4.000000,4.000000,4.000000,100.000000,2.000000,0.000000,0.597688,0.012573,-0.771912,0.216248,0.943374,-0.349126,-0.203128,-36.337833,-119.331657,7.327382,,,,,,,,,,,,,,,,,,,,,,,,,,,,,,,,,,,,,,,,,,,,,,,,,,,,,,,,,,,,,,,,,,,,,,,,,,,,,,,,,,,,,,,,,,,,,,,,,,,,,
1606525021.411133,9.000000,0.000000,4185.512695,4174.871582,4199.743652,4220.128418,4236.153809,4215.000000,4220.384766,4207.436035,4200.641113,4200.128418,4194.230957,4207.436035,4153.077148,4168.077148,3584.000000,2.000000,,,,0.000000,4.000000,4.000000,4.000000,4.000000,4.000000,4.000000,4.000000,4.000000,4.000000,4.000000,4.000000,4.000000,4.000000,4.000000,100.000000,,,,,,,,,,,,,,,,,,,,,,,,,,,,,,,,,,,,,,,,,,,,,,,,,,,,,,,,,,,,,,,,,,,,,,,,,,,,,,,,,,,,,,,,,,,,,,,,,,,,,,,,,,,,,,,,,
1606525021.418829,10.000000,0.000000,4186.282227,4195.769043,4201.410156,4217.563965,4232.179688,4210.128418,4206.410156,4187.692383,4197.051270,4191.538574,4197.179688,4207.948730,4146.794922,4163.333496,3453.000000,2.000000,,,,0.000000,4.000000,4.000000,4.000000,4.000000,4.000000,4.000000,4.000000,4.000000,4.000000,4.000000,4.000000,4.000000,4.000000,4.000000,100.000000,,,,,,,,,,,,,,,,,,,,,,,,,,,,,,,,,,,,,,,,,,,,,,,,,,,,,,,,,,,,,,,,,,,,,,,,,,,,,,,,,,,,,,,,,,,,,,,,,,,,,,,,,,,,,,,,,
1606525021.426624,11.000000,0.000000,4159.743652,4178.077148,4184.487305,4198.461426,4202.948730,4193.589844,4191.794922,4167.563965,4183.333496,4169.743652,4173.974121,4180.000000,4118.333496,4129.615234,3516.000000,2.000000,,,,0.000000,4.000000,4.000000,4.000000,4.000000,4.000000,4.000000,4.000000,4.000000,4.000000,4.000000,4.000000,4.000000,4.000000,4.000000,100.000000,,,,,,,,,,,,,,,,,,,,,,,,,,,,,,,,,,,,,,,,,,,,,,,,,,,,,,,,,,,,,,,,,,,,,,,,,,,,,,,,,,,,,,,,,,,,,,,,,,,,,,,,,,,,,,,,,
1606525021.434320,12.000000,0.000000,4160.384766,4161.538574,4189.615234,4202.051270,4206.538574,4205.128418,4207.948730,4186.153809,4188.846191,4174.102539,4173.077148,4187.307617,4114.102539,4132.692383,3455.000000,2.000000,,,,0.000000,4.000000,4.000000,4.000000,4.000000,4.000000,4.000000,4.000000,4.000000,4.000000,4.000000,4.000000,4.000000,4.000000,4.000000,100.000000,3.000000,0.000000,0.597759,0.012817,-0.771973,0.215820,0.946792,-0.336919,-0.187015,-35.889221,-120.079346,5.831998,,,,,,,,,,,,,,,,,,,,,,,,,,,,,,,,,,,,,,,,,,,,,,,,,,,,,,,,,,,,,,,,,,,,,,,,,,,,,,,,,,,,,,,,,,,,,,,,,,,,,
1606525021.442016,13.000000,0.000000,4192.436035,4189.230957,4216.538574,4225.256348,4231.666504,4217.948730,4223.589844,4215.128418,4211.794922,4207.051270,4215.512695,4225.000000,4164.358887,4181.410156,3183.000000,2.000000,,,,0.000000,4.000000,4.000000,4.000000,4.000000,4.000000,4.000000,4.000000,4.000000,4.000000,4.000000,4.000000,4.000000,4.000000,4.000000,100.000000,,,,,,,,,,,,,,,,,,,,,,,,,,,,,,,,,,,,,,,,,,,,,,,,,,,,,,,,,,,,,,,,,,,,,,,,,,,,,,,,,,,,,,,,,,,,,,,,,,,,,,,,,,,,,,,,,
1606525021.449712,14.000000,0.000000,4210.256348,4225.384766,4218.077148,4228.974121,4220.769043,4205.128418,4216.922852,4210.897461,4223.333496,4229.743652,4229.871582,4233.333496,4200.000000,4210.128418,3453.000000,2.000000,,,,0.000000,4.000000,4.000000,4.000000,4.000000,4.000000,4.000000,4.000000,4.000000,4.000000,4.000000,4.000000,4.000000,4.000000,4.000000,100.000000,,,,,,,,,,,,,,,,,,,,,,,,,,,,,,,,,,,,,,,,,,,,,,,,,,,,,,,,,,,,,,,,,,,,,,,,,,,,,,,,,,,,,,,,,,,,,,,,,,,,,,,,,,,,,,,,,
1606525021.457508,15.000000,0.000000,4210.128418,4237.436035,4205.769043,4225.256348,4196.922852,4198.333496,4207.948730,4194.230957,4210.384766,4212.179688,4210.512695,4223.205078,4199.487305,4211.922852,3516.000000,2.000000,,,,0.000000,4.000000,4.000000,4.000000,4.000000,4.000000,4.000000,4.000000,4.000000,4.000000,4.000000,4.000000,4.000000,4.000000,4.000000,100.000000,,,,,,,,,,,,,,,,,,,,,,,,,,,,,,,,,,,,,,,,,,,,8.010863,3.288547,1.155085,0.784042,0.507678,11.890472,5.533678,5.825418,2.085043,0.578407,5.219267,1.401049,0.369482,0.536557,0.572785,2.014763,1.106403,1.840040,0.649732,0.421313,1.966509,1.305996,0.548531,0.608659,0.481396,1.513667,0.336579,0.498179,0.284124,0.455650,1.282988,0.787111,0.296338,0.358673,0.474780,1.806031,1.732160,0.933438,0.615799,0.681849,1.454804,1.196611,1.350333,0.496128,0.491250,2.554920,1.461680,2.468494,0.432659,1.767303,6.142137,1.524781,1.019749,0.726592,0.986477,4.632293,2.148552,0.652984,0.663709,0.532299,15.820268,4.777576,3.315066,1.073836,0.969278,14.435524,3.422416,1.832469,1.282250,0.772771
1606525021.465404,16.000000,0.000000,4211.922852,4237.948730,4203.205078,4226.794922,4192.563965,4200.897461,4206.153809,4192.820313,4197.436035,4192.820313,4214.102539,4217.820313,4222.307617,4222.820313,0.000000,2.000000,,,,0.000000,4.000000,4.000000,4.000000,4.000000,4.000000,4.000000,4.000000,4.000000,4.000000,4.000000,4.000000,4.000000,4.000000,4.000000,100.000000,4.000000,0.000000,0.598025,0.012512,-0.772095,0.214661,0.966323,-0.332525,-0.196292,-36.337833,-118.284889,6.280613,,,,,,,,,,,,,,,,,,,,,,,,,,,,,,,,,,,,,,,,,,,,,,,,,,,,,,,,,,,,,,,,,,,,,,,,,,,,,,,,,,,,,,,,,,,,,,,,,,,,,
1606525021.473100,17.000000,0.000000,4228.717773,4244.102539,4212.563965,4224.743652,4190.641113,4200.128418,4216.666504,4196.153809,4201.538574,4203.205078,4230.512695,4222.948730,4258.717773,4239.615234,0.000000,2.000000,,,,0.000000,4.000000,4.000000,4.000000,4.000000,4.000000,4.000000,4.000000,4.000000,4.000000,4.000000,4.000000,4.000000,4.000000,4.000000,100.000000,,,,,,,,,,,,,,,,,,,,,,,,,,,,,,,,,,,,,,,,,,,,,,,,,,,,,,,,,,,,,,,,,,,,,,,,,,,,,,,,,,,,,,,,,,,,,,,,,,,,,,,,,,,,,,,,,
1606525021.480795,18.000000,0.000000,4231.410156,4254.487305,4214.230957,4225.769043,4190.897461,4198.077148,4215.512695,4199.102539,4213.333496,4223.717773,4231.794922,4227.051270,4263.461426,4247.948730,0.000000,2.000000,,,,0.000000,4.000000,4.000000,4.000000,4.000000,4.000000,4.000000,4.000000,4.000000,4.000000,4.000000,4.000000,4.000000,4.000000,4.000000,100.000000,,,,,,,,,,,,,,,,,,,,,,,,,,,,,,,,,,,,,,,,,,,,,,,,,,,,,,,,,,,,,,,,,,,,,,,,,,,,,,,,,,,,,,,,,,,,,,,,,,,,,,,,,,,,,,,,,
1606525021.488391,19.000000,0.000000,4230.512695,4245.128418,4207.692383,4217.692383,4200.384766,4205.641113,4211.025879,4210.512695,4215.128418,4225.256348,4223.589844,4227.692383,4247.307617,4238.974121,0.000000,2.000000,,,,0.000000,4.000000,4.000000,4.000000,4.000000,4.000000,4.000000,4.000000,4.000000,4.000000,4.000000,4.000000,4.000000,4.000000,4.000000,100.000000,,,,,,,,,,,,,,,,,,,,,,,,,,,,,,,,,,,,,,,,,,,,,,,,,,,,,,,,,,,,,,,,,,,,,,,,,,,,,,,,,,,,,,,,,,,,,,,,,,,,,,,,,,,,,,,,,
1606525021.496087,20.000000,0.000000,4216.025879,4226.153809,4193.077148,4206.410156,4207.179688,4209.487305,4212.820313,4212.051270,4213.461426,4220.512695,4219.358887,4218.333496,4235.256348,4225.769043,0.000000,2.000000,,,,0.000000,4.000000,4.000000,4.000000,4.000000,4.000000,4.000000,4.000000,4.000000,4.000000,4.000000,4.000000,4.000000,4.000000,4.000000,100.000000,5.000000,0.000000,0.597862,0.013184,-0.772278,0.214417,0.952651,-0.326177,-0.208011,-35.889221,-119.032578,5.532921,,,,,,,,,,,,,,,,,,,,,,,,,,,,,,,,,,,,,,,,,,,,,,,,,,,,,,,,,,,,,,,,,,,,,,,,,,,,,,,,,,,,,,,,,,,,,,,,,,,,,
1606525021.503783,21.000000,0.000000,4215.000000,4210.384766,4194.487305,4206.153809,4195.512695,4212.179688,4205.897461,4193.974121,4204.487305,4203.333496,4217.436035,4217.692383,4227.307617,4220.000000,0.000000,2.000000,,,,0.000000,4.000000,4.000000,4.000000,4.000000,4.000000,4.000000,4.000000,4.000000,4.000000,4.000000,4.000000,4.000000,4.000000,4.000000,100.000000,,,,,,,,,,,,,,,,,,,,,,,,,,,,,,,,,,,,,,,,,,,,,,,,,,,,,,,,,,,,,,,,,,,,,,,,,,,,,,,,,,,,,,,,,,,,,,,,,,,,,,,,,,,,,,,,,
1606525021.511479,22.000000,0.000000,4223.205078,4215.384766,4207.820313,4219.871582,4199.743652,4210.128418,4200.512695,4198.846191,4213.077148,4212.179688,4229.102539,4230.384766,4243.589844,4235.512695,0.000000,2.000000,,,,0.000000,4.000000,4.000000,4.000000,4.000000,4.000000,4.000000,4.000000,4.000000,4.000000,4.000000,4.000000,4.000000,4.000000,4.000000,100.000000,,,,,,,,,,,,,,,,,,,,,,,,,,,,,,,,,,,,,,,,,,,,,,,,,,,,,,,,,,,,,,,,,,,,,,,,,,,,,,,,,,,,,,,,,,,,,,,,,,,,,,,,,,,,,,,,,
1606525021.519275,23.000000,0.000000,4240.128418,4226.922852,4220.641113,4222.179688,4213.205078,4206.922852,4212.051270,4221.282227,4231.282227,4241.794922,4238.589844,4251.794922,4257.820313,4247.820313,0.000000,2.000000,,,,0.000000,4.000000,4.000000,4.000000,4.000000,4.000000,4.000000,4.000000,4.000000,4.000000,4.000000,4.000000,4.000000,4.000000,4.000000,100.000000,,,,,,,,,,,,,,,,,,,,,,,,,,,,,,,,,,,,,,,,,,,,,,,,,,,,,,,,,,,,,,,,,,,,,,,,,,,,,,,,,,,,,,,,,,,,,,,,,,,,,,,,,,,,,,,,,
1606525021.526971,24.000000,0.000000,4235.000000,4231.025879,4217.692383,4218.589844,4208.205078,4197.307617,4209.615234,4213.846191,4227.051270,4236.410156,4240.256348,4250.641113,4250.769043,4244.615234,0.000000,2.000000,,,,0.000000,4.000000,4.000000,4.000000,4.000000,4.000000,4.000000,4.000000,4.000000,4.000000,4.000000,4.000000,4.000000,4.000000,4.000000,100.000000,6.000000,0.000000,0.597354,0.014465,-0.772461,0.215088,0.950698,-0.326665,-0.197269,-36.038757,-119.481194,6.878767,,,,,,,,,,,,,,,,,,,,,,,,,,,,,,,,,,,,,,,,,,,,,,,,,,,,,,,,,,,,,,,,,,,,,,,,,,,,,,,,,,,,,,,,,,,,,,,,,,,,,
1606525021.534667,25.000000,0.000000,4232.692383,4225.128418,4216.922852,4213.333496,4195.512695,4195.769043,4197.051270,4198.846191,4214.102539,4212.051270,4230.128418,4238.589844,4242.692383,4233.077148,0.000000,2.000000,,,,0.000000,4.000000,4.000000,4.000000,4.000000,4.000000,4.000000,4.000000,4.000000,4.000000,4.000000,4.000000,4.000000,4.000000,4.000000,100.000000,,,,,,,,,,,,,,,,,,,,,,,,,,,,,,,,,,,,,,,,,,,,,,,,,,,,,,,,,,,,,,,,,,,,,,,,,,,,,,,,,,,,,,,,,,,,,,,,,,,,,,,,,,,,,,,,,
1606525021.542363,26.000000,0.000000,4223.589844,4217.051270,4210.512695,4202.051270,4193.461426,4191.922852,4194.102539,4211.794922,4219.871582,4214.871582,4221.025879,4233.077148,4241.922852,4224.230957,0.000000,2.000000,,,,0.000000,4.000000,4.000000,4.000000,4.000000,4.000000,4.000000,4.000000,4.000000,4.000000,4.000000,4.000000,4.000000,4.000000,4.000000,100.000000,,,,,,,,,,,,,,,,,,,,,,,,,,,,,,,,,,,,,,,,,,,,,,,,,,,,,,,,,,,,,,,,,,,,,,,,,,,,,,,,,,,,,,,,,,,,,,,,,,,,,,,,,,,,,,,,,
1606525021.550159,27.000000,0.000000,4221.025879,4209.358887,4205.128418,4195.769043,4184.743652,4183.205078,4187.179688,4218.205078,4215.000000,4212.692383,4225.897461,4236.666504,4238.589844,4228.717773,0.000000,2.000000,,,,0.000000,4.000000,4.000000,4.000000,4.000000,4.000000,4.000000,4.000000,4.000000,4.000000,4.000000,4.000000,4.000000,4.000000,4.000000,100.000000,,,,,,,,,,,,,,,,,,,,,,,,,,,,,,,,,,,,,,,,,,,,,,,,,,,,,,,,,,,,,,,,,,,,,,,,,,,,,,,,,,,,,,,,,,,,,,,,,,,,,,,,,,,,,,,,,
1606525021.558054,28.000000,0.000000,4222.179688,4204.871582,4209.743652,4202.436035,4182.820313,4185.641113,4191.922852,4207.563965,4202.948730,4200.000000,4234.102539,4240.256348,4239.358887,4238.333496,0.000000,2.000000,,,,0.000000,4.000000,4.000000,4.000000,4.000000,4.000000,4.000000,4.000000,4.000000,4.000000,4.000000,4.000000,4.000000,4.000000,4.000000,100.000000,7.000000,0.000000,0.597304,0.014709,-0.772461,0.215210,0.954116,-0.343267,-0.196292,-35.440605,-119.780273,5.831998,,,,,,,,,,,,,,,,,,,,,,,,,,,,,,,,,,,,,,,,,,,,,,,,,,,,,,,,,,,,,,,,,,,,,,,,,,,,,,,,,,,,,,,,,,,,,,,,,,,,,
1606525021.565950,29.000000,0.000000,4222.179688,4208.589844,4213.205078,4206.666504,4195.512695,4198.077148,4203.974121,4208.461426,4204.230957,4196.153809,4223.846191,4234.102539,4238.077148,4233.077148,0.000000,2.000000,,,,0.000000,4.000000,4.000000,4.000000,4.000000,4.000000,4.000000,4.000000,4.000000,4.000000,4.000000,4.000000,4.000000,4.000000,4.000000,100.000000,,,,,,,,,,,,,,,,,,,,,,,,,,,,,,,,,,,,,,,,,,,,,,,,,,,,,,,,,,,,,,,,,,,,,,,,,,,,,,,,,,,,,,,,,,,,,,,,,,,,,,,,,,,,,,,,,
1606525021.573846,30.000000,0.000000,4226.282227,4224.743652,4212.436035,4211.410156,4208.589844,4203.461426,4204.230957,4217.179688,4211.794922,4204.615234,4218.333496,4229.615234,4236.922852,4226.666504,0.000000,2.000000,,,,0.000000,4.000000,4.000000,4.000000,4.000000,4.000000,4.000000,4.000000,4.000000,4.000000,4.000000,4.000000,4.000000,4.000000,4.000000,100.000000,,,,,,,,,,,,,,,,,,,,,,,,,,,,,,,,,,,,,,,,,,,,,,,,,,,,,,,,,,,,,,,,,,,,,,,,,,,,,,,,,,,,,,,,,,,,,,,,,,,,,,,,,,,,,,,,,
1606525021.581841,31.000000,0.000000,4223.974121,4225.769043,4206.153809,4212.051270,4206.666504,4199.230957,4198.589844,4210.256348,4211.410156,4213.974121,4225.128418,4230.512695,4242.436035,4228.461426,0.000000,2.000000,,,,0.000000,4.000000,4.000000,4.000000,4.000000,4.000000,4.000000,4.000000,4.000000,4.000000,4.000000,4.000000,4.000000,4.000000,4.000000,100.000000,,,,,,,,,,,,,,,,,,,,,,,,,,,,,,,,,,,,,,,,,,,,8.645023,3.171587,1.301886,0.884933,0.518320,11.914271,5.283030,6.425692,2.280334,0.559038,5.535985,1.197913,0.475670,0.599063,0.550790,2.171605,1.015339,2.067665,0.649560,0.414517,2.188653,1.661331,0.656838,0.548927,0.458643,1.667703,0.327989,0.429734,0.278295,0.437505,1.270568,0.780307,0.274455,0.341309,0.454287,2.277515,1.445965,0.972810,0.596841,0.724351,1.378893,1.128364,1.382329,0.481412,0.485906,2.101585,1.144424,2.656950,0.426557,1.716076,6.040160,1.335043,0.978206,0.686600,1.002910,4.839468,1.651988,0.646387,0.696321,0.538418,15.946683,4.825488,3.490875,1.174682,1.001118,14.955130,3.079128,2.075274,1.367750,0.769811
1606525021.589737,32.000000,0.000000,4216.025879,4204.487305,4204.871582,4203.205078,4191.025879,4198.333496,4201.666504,4203.717773,4213.589844,4222.051270,4217.179688,4234.743652,4234.871582,4221.794922,0.000000,2.000000,,,,0.000000,4.000000,4.000000,4.000000,4.000000,4.000000,4.000000,4.000000,4.000000,4.000000,4.000000,4.000000,4.000000,4.000000,4.000000,100.000000,8.000000,0.000000,0.597724,0.013855,-0.772339,0.214539,0.948745,-0.325689,-0.199710,-36.487373,-119.481194,6.430152,,,,,,,,,,,,,,,,,,,,,,,,,,,,,,,,,,,,,,,,,,,,,,,,,,,,,,,,,,,,,,,,,,,,,,,,,,,,,,,,,,,,,,,,,,,,,,,,,,,,,
1606525021.597633,33.000000,0.000000,4214.743652,4204.230957,4207.820313,4203.846191,4189.230957,4199.615234,4207.820313,4207.948730,4219.615234,4223.333496,4210.512695,4233.846191,4216.282227,4220.641113,0.000000,2.000000,,,,0.000000,4.000000,4.000000,4.000000,4.000000,4.000000,4.000000,4.000000,4.000000,4.000000,4.000000,4.000000,4.000000,4.000000,4.000000,100.000000,,,,,,,,,,,,,,,,,,,,,,,,,,,,,,,,,,,,,,,,,,,,,,,,,,,,,,,,,,,,,,,,,,,,,,,,,,,,,,,,,,,,,,,,,,,,,,,,,,,,,,,,,,,,,,,,,
1606525021.605528,34.000000,0.000000,4223.846191,4218.717773,4207.692383,4199.487305,4196.153809,4197.820313,4208.974121,4207.179688,4212.436035,4214.230957,4208.461426,4230.512695,4206.025879,4219.358887,0.000000,2.000000,,,,0.000000,4.000000,4.000000,4.000000,4.000000,4.000000,4.000000,4.000000,4.000000,4.000000,4.000000,4.000000,4.000000,4.000000,4.000000,100.000000,,,,,,,,,,,,,,,,,,,,,,,,,,,,,,,,,,,,,,,,,,,,,,,,,,,,,,,,,,,,,,,,,,,,,,,,,,,,,,,,,,,,,,,,,,,,,,,,,,,,,,,,,,,,,,,,,
1606525021.613124,35.000000,0.000000,4204.871582,4218.077148,4188.205078,4186.666504,4190.384766,4187.179688,4191.666504,4197.820313,4203.205078,4207.051270,4198.974121,4214.102539,4209.102539,4200.256348,0.000000,2.000000,,,,0.000000,4.000000,4.000000,4.000000,4.000000,4.000000,4.000000,4.000000,4.000000,4.000000,4.000000,4.000000,4.000000,4.000000,4.000000,100.000000,,,,,,,,,,,,,,,,,,,,,,,,,,,,,,,,,,,,,,,,,,,,,,,,,,,,,,,,,,,,,,,,,,,,,,,,,,,,,,,,,,,,,,,,,,,,,,,,,,,,,,,,,,,,,,,,,
1606525021.620820,36.000000,0.000000,4201.922852,4213.846191,4189.487305,4189.102539,4183.589844,4188.974121,4180.769043,4196.666504,4205.000000,4194.743652,4203.717773,4215.128418,4212.820313,4194.230957,0.000000,2.000000,,,,0.000000,4.000000,4.000000,4.000000,4.000000,4.000000,4.000000,4.000000,4.000000,4.000000,4.000000,4.000000,4.000000,4.000000,4.000000,100.000000,9.000000,0.000000,0.598297,0.012451,-0.772156,0.213684,0.970230,-0.335454,-0.185061,-36.038757,-119.182114,7.925536,,,,,,,,,,,,,,,,,,,,,,,,,,,,,,,,,,,,,,,,,,,,,,,,,,,,,,,,,,,,,,,,,,,,,,,,,,,,,,,,,,,,,,,,,,,,,,,,,,,,,
1606525021.628516,37.000000,0.000000,4213.077148,4227.179688,4205.641113,4205.128418,4198.589844,4201.025879,4195.000000,4202.051270,4218.461426,4206.410156,4229.230957,4233.333496,4218.717773,4217.563965,0.000000,2.000000,,,,0.000000,4.000000,4.000000,4.000000,4.000000,4.000000,4.000000,4.000000,4.000000,4.000000,4.000000,4.000000,4.000000,4.000000,4.000000,100.000000,,,,,,,,,,,,,,,,,,,,,,,,,,,,,,,,,,,,,,,,,,,,,,,,,,,,,,,,,,,,,,,,,,,,,,,,,,,,,,,,,,,,,,,,,,,,,,,,,,,,,,,,,,,,,,,,,
1606525021.636212,38.000000,0.000000,4221.666504,4228.461426,4205.641113,4204.615234,4205.256348,4208.205078,4209.358887,4205.769043,4221.153809,4227.563965,4227.692383,4241.153809,4215.256348,4219.230957,0.000000,2.000000,,,,0.000000,4.000000,4.000000,4.000000,4.000000,4.000000,4.000000,4.000000,4.000000,4.000000,4.000000,4.000000,4.000000,4.000000,4.000000,100.000000,,,,,,,,,,,,,,,,,,,,,,,,,,,,,,,,,,,,,,,,,,,,,,,,,,,,,,,,,,,,,,,,,,,,,,,,,,,,,,,,,,,,,,,,,,,,,,,,,,,,,,,,,,,,,,,,,
1606525021.644008,39.000000,0.000000,4199.102539,4213.846191,4184.743652,4195.897461,4197.436035,4206.922852,4202.948730,4204.102539,4214.102539,4223.846191,4205.897461,4220.641113,4204.615234,4199.487305,0.000000,2.000000,,,,0.000000,4.000000,4.000000,4.000000,4.000000,4.000000,4.000000,4.000000,4.000000,4.000000,4.000000,4.000000,4.000000,4.000000,4.000000,100.000000,,,,,,,,,,,,,,,,,,,,,,,,,,,,,,,,,,,,,,,,,,,,,,,,,,,,,,,,,,,,,,,,,,,,,,,,,,,,,,,,,,,,,,,,,,,,,,,,,,,,,,,,,,,,,,,,,
1606525021.651904,40.000000,0.000000,4190.641113,4204.487305,4181.410156,4189.230957,4190.512695,4212.820313,4202.563965,4189.871582,4203.846191,4200.641113,4196.410156,4207.692383,4199.487305,4196.025879,0.000000,2.000000,,,,0.000000,4.000000,4.000000,4.000000,4.000000,4.000000,4.000000,4.000000,4.000000,4.000000,4.000000,4.000000,4.000000,4.000000,4.000000,100.000000,10.000000,0.000000,0.598783,0.011658,-0.772095,0.212585,0.952163,-0.326177,-0.193851,-37.534142,-119.331657,8.224613,,,,,,,,,,,,,,,,,,,,,,,,,,,,,,,,,,,,,,,,,,,,,,,,,,,,,,,,,,,,,,,,,,,,,,,,,,,,,,,,,,,,,,,,,,,,,,,,,,,,,
1606525021.659600,41.000000,0.000000,4201.025879,4213.974121,4191.794922,4196.794922,4193.846191,4207.948730,4208.846191,4185.512695,4209.487305,4207.307617,4205.256348,4212.820313,4210.512695,4206.666504,0.000000,2.000000,,,,0.000000,4.000000,4.000000,4.000000,4.000000,4.000000,4.000000,4.000000,4.000000,4.000000,4.000000,4.000000,4.000000,4.000000,4.000000,100.000000,,,,,,,,,,,,,,,,,,,,,,,,,,,,,,,,,,,,,,,,,,,,,,,,,,,,,,,,,,,,,,,,,,,,,,,,,,,,,,,,,,,,,,,,,,,,,,,,,,,,,,,,,,,,,,,,,
1606525021.667296,42.000000,0.000000,4216.538574,4219.487305,4200.641113,4207.051270,4194.871582,4200.000000,4207.436035,4196.794922,4223.077148,4228.333496,4215.769043,4224.743652,4220.000000,4211.538574,0.000000,2.000000,,,,0.000000,4.000000,4.000000,4.000000,4.000000,4.000000,4.000000,4.000000,4.000000,4.000000,4.000000,4.000000,4.000000,4.000000,4.000000,100.000000,,,,,,,,,,,,,,,,,,,,,,,,,,,,,,,,,,,,,,,,,,,,,,,,,,,,,,,,,,,,,,,,,,,,,,,,,,,,,,,,,,,,,,,,,,,,,,,,,,,,,,,,,,,,,,,,,
1606525021.675091,43.000000,0.000000,4206.538574,4208.205078,4195.897461,4197.179688,4192.307617,4195.512695,4198.846191,4195.641113,4217.307617,4208.333496,4218.205078,4222.307617,4221.666504,4215.897461,0.000000,2.000000,,,,0.000000,4.000000,4.000000,4.000000,4.000000,4.000000,4.000000,4.000000,4.000000,4.000000,4.000000,4.000000,4.000000,4.000000,4.000000,100.000000,,,,,,,,,,,,,,,,,,,,,,,,,,,,,,,,,,,,,,,,,,,,,,,,,,,,,,,,,,,,,,,,,,,,,,,,,,,,,,,,,,,,,,,,,,,,,,,,,,,,,,,,,,,,,,,,,
1606525021.682787,44.000000,0.000000,4202.307617,4198.333496,4189.871582,4186.410156,4191.794922,4193.205078,4191.666504,4184.358887,4199.615234,4184.871582,4214.743652,4219.230957,4223.717773,4220.128418,0.000000,2.000000,,,,0.000000,4.000000,4.000000,4.000000,4.000000,4.000000,4.000000,4.000000,4.000000,4.000000,4.000000,4.000000,4.000000,4.000000,4.000000,100.000000,11.000000,0.000000,0.599142,0.010986,-0.772095,0.211609,0.971206,-0.315435,-0.196780,-35.739681,-119.182114,7.626459,,,,,,,,,,,,,,,,,,,,,,,,,,,,,,,,,,,,,,,,,,,,,,,,,,,,,,,,,,,,,,,,,,,,,,,,,,,,,,,,,,,,,,,,,,,,,,,,,,,,,
1606525021.690683,45.000000,0.000000,4213.333496,4205.256348,4190.128418,4195.000000,4196.153809,4191.282227,4196.538574,4190.641113,4205.641113,4210.512695,4220.128418,4230.512695,4227.307617,4222.307617,0.000000,2.000000,,,,0.000000,4.000000,4.000000,4.000000,4.000000,4.000000,4.000000,4.000000,4.000000,4.000000,4.000000,4.000000,4.000000,4.000000,4.000000,100.000000,,,,,,,,,,,,,,,,,,,,,,,,,,,,,,,,,,,,,,,,,,,,,,,,,,,,,,,,,,,,,,,,,,,,,,,,,,,,,,,,,,,,,,,,,,,,,,,,,,,,,,,,,,,,,,,,,
1606525021.698379,46.000000,0.000000,4210.641113,4207.436035,4183.333496,4194.102539,4191.666504,4191.153809,4196.282227,4193.589844,4216.410156,4231.538574,4220.000000,4230.000000,4220.000000,4217.692383,0.000000,2.000000,,,,0.000000,4.000000,4.000000,4.000000,4.000000,4.000000,4.000000,4.000000,4.000000,4.000000,4.000000,4.000000,4.000000,4.000000,4.000000,100.000000,,,,,,,,,,,,,,,,,,,,,,,,,,,,,,,,,,,,,,,,,,,,,,,,,,,,,,,,,,,,,,,,,,,,,,,,,,,,,,,,,,,,,,,,,,,,,,,,,,,,,,,,,,,,,,,,,
1606525021.706175,47.000000,0.000000,4213.077148,4207.692383,4187.820313,4189.743652,4187.820313,4197.307617,4201.153809,4184.358887,4203.077148,4213.205078,4214.615234,4227.948730,4218.589844,4213.974121,0.000000,2.000000,,,,0.000000,4.000000,4.000000,4.000000,4.000000,4.000000,4.000000,4.000000,4.000000,4.000000,4.000000,4.000000,4.000000,4.000000,4.000000,100.000000,,,,,,,,,,,,,,,,,,,,,,,,,,,,,,,,,,,,,,,,,,,,8.736094,2.864129,1.332932,0.978781,0.501090,11.233583,4.686016,6.306224,2.251815,0.582436,5.587141,1.096016,0.582823,0.688643,0.509434,2.247993,1.033280,2.125045,0.616036,0.399855,2.437336,2.009875,0.773338,0.498925,0.447182,1.679410,0.313227,0.350961,0.271881,0.407722,1.313142,0.803733,0.269097,0.329708,0.439312,2.744227,1.265077,0.995719,0.567884,0.772840,1.354593,1.117780,1.359564,0.463714,0.480199,1.929888,0.962346,2.639127,0.459310,1.541868,5.723179,1.230510,0.941937,0.648187,0.945142,4.844797,1.185213,0.656120,0.725155,0.520116,15.196375,4.662982,3.341703,1.262477,0.967465,14.441324,2.648440,2.211502,1.414900,0.727711
1606525021.714070,48.000000,0.000000,4218.717773,4214.615234,4201.153809,4200.384766,4192.563965,4196.153809,4204.871582,4183.205078,4191.282227,4197.179688,4217.948730,4233.205078,4228.589844,4217.436035,0.000000,2.000000,,,,0.000000,4.000000,4.000000,4.000000,4.000000,4.000000,4.000000,4.000000,4.000000,4.000000,4.000000,4.000000,4.000000,4.000000,4.000000,100.000000,12.000000,0.000000,0.599097,0.011047,-0.772095,0.211731,0.959976,-0.322759,-0.188479,-36.786449,-119.780273,5.532921,,,,,,,,,,,,,,,,,,,,,,,,,,,,,,,,,,,,,,,,,,,,,,,,,,,,,,,,,,,,,,,,,,,,,,,,,,,,,,,,,,,,,,,,,,,,,,,,,,,,,
1606525021.721766,49.000000,0.000000,4218.846191,4211.025879,4208.333496,4207.307617,4194.102539,4193.717773,4198.205078,4183.717773,4193.717773,4194.871582,4218.077148,4233.846191,4226.410156,4220.641113,0.000000,2.000000,,,,0.000000,4.000000,4.000000,4.000000,4.000000,4.000000,4.000000,4.000000,4.000000,4.000000,4.000000,4.000000,4.000000,4.000000,4.000000,100.000000,,,,,,,,,,,,,,,,,,,,,,,,,,,,,,,,,,,,,,,,,,,,,,,,,,,,,,,,,,,,,,,,,,,,,,,,,,,,,,,,,,,,,,,,,,,,,,,,,,,,,,,,,,,,,,,,,
1606525021.729462,50.000000,0.000000,4207.179688,4207.179688,4202.051270,4207.948730,4195.128418,4188.205078,4186.666504,4179.102539,4193.333496,4187.051270,4213.461426,4225.256348,4221.666504,4223.717773,0.000000,2.000000,,,,0.000000,4.000000,4.000000,4.000000,4.000000,4.000000,4.000000,4.000000,4.000000,4.000000,4.000000,4.000000,4.000000,4.000000,4.000000,100.000000,,,,,,,,,,,,,,,,,,,,,,,,,,,,,,,,,,,,,,,,,,,,,,,,,,,,,,,,,,,,,,,,,,,,,,,,,,,,,,,,,,,,,,,,,,,,,,,,,,,,,,,,,,,,,,,,,
1606525021.737458,51.000000,0.000000,4216.538574,4214.743652,4207.179688,4209.358887,4191.025879,4189.358887,4191.922852,4178.846191,4186.538574,4180.641113,4209.358887,4229.871582,4219.871582,4218.589844,0.000000,2.000000,,,,0.000000,4.000000,4.000000,4.000000,4.000000,4.000000,4.000000,4.000000,4.000000,4.000000,4.000000,4.000000,4.000000,4.000000,4.000000,100.000000,,,,,,,,,,,,,,,,,,,,,,,,,,,,,,,,,,,,,,,,,,,,,,,,,,,,,,,,,,,,,,,,,,,,,,,,,,,,,,,,,,,,,,,,,,,,,,,,,,,,,,,,,,,,,,,,,
1606525021.745354,52.000000,0.000000,4219.615234,4226.153809,4216.153809,4214.487305,4192.051270,4199.102539,4202.820313,4184.743652,4201.922852,4203.717773,4214.358887,4232.436035,4220.897461,4215.897461,0.000000,2.000000,,,,0.000000,4.000000,4.000000,4.000000,4.000000,4.000000,4.000000,4.000000,4.000000,4.000000,4.000000,4.000000,4.000000,4.000000,4.000000,100.000000,13.000000,0.000000,0.598643,0.011902,-0.772217,0.212524,0.946792,-0.328130,-0.196292,-36.786449,-119.780273,6.579690,,,,,,,,,,,,,,,,,,,,,,,,,,,,,,,,,,,,,,,,,,,,,,,,,,,,,,,,,,,,,,,,,,,,,,,,,,,,,,,,,,,,,,,,,,,,,,,,,,,,,
1606525021.753249,53.000000,0.000000,4226.794922,4220.128418,4226.153809,4219.487305,4194.487305,4204.230957,4199.230957,4183.077148,4210.128418,4222.051270,4217.948730,4228.846191,4222.820313,4218.077148,0.000000,2.000000,,,,0.000000,4.000000,4.000000,4.000000,4.000000,4.000000,4.000000,4.000000,4.000000,4.000000,4.000000,4.000000,4.000000,4.000000,4.000000,100.000000,,,,,,,,,,,,,,,,,,,,,,,,,,,,,,,,,,,,,,,,,,,,,,,,,,,,,,,,,,,,,,,,,,,,,,,,,,,,,,,,,,,,,,,,,,,,,,,,,,,,,,,,,,,,,,,,,
1606525021.761145,54.000000,0.000000,4219.871582,4207.948730,4225.000000,4221.282227,4193.205078,4190.000000,4194.358887,4181.538574,4200.000000,4219.487305,4214.487305,4225.641113,4215.512695,4214.743652,0.000000,2.000000,,,,0.000000,4.000000,4.000000,4.000000,4.000000,4.000000,4.000000,4.000000,4.000000,4.000000,4.000000,4.000000,4.000000,4.000000,4.000000,100.000000,,,,,,,,,,,,,,,,,,,,,,,,,,,,,,,,,,,,,,,,,,,,,,,,,,,,,,,,,,,,,,,,,,,,,,,,,,,,,,,,,,,,,,,,,,,,,,,,,,,,,,,,,,,,,,,,,
1606525021.769141,55.000000,0.000000,4212.948730,4196.922852,4220.256348,4208.205078,4190.000000,4193.077148,4205.897461,4191.025879,4200.256348,4205.512695,4205.769043,4230.128418,4193.974121,4201.025879,0.000000,2.000000,,,,0.000000,4.000000,4.000000,4.000000,4.000000,4.000000,4.000000,4.000000,4.000000,4.000000,4.000000,4.000000,4.000000,4.000000,4.000000,100.000000,,,,,,,,,,,,,,,,,,,,,,,,,,,,,,,,,,,,,,,,,,,,,,,,,,,,,,,,,,,,,,,,,,,,,,,,,,,,,,,,,,,,,,,,,,,,,,,,,,,,,,,,,,,,,,,,,
1606525021.777036,56.000000,0.000000,4203.077148,4198.846191,4207.179688,4198.974121,4193.205078,4212.948730,4209.615234,4194.230957,4217.051270,4207.436035,4207.307617,4223.333496,4198.461426,4198.333496,0.000000,2.000000,,,,0.000000,4.000000,4.000000,4.000000,4.000000,4.000000,4.000000,4.000000,4.000000,4.000000,4.000000,4.000000,4.000000,4.000000,4.000000,100.000000,14.000000,0.000000,0.598589,0.012024,-0.772156,0.212891,0.947280,-0.323735,-0.190433,-35.889221,-118.583961,6.579690,,,,,,,,,,,,,,,,,,,,,,,,,,,,,,,,,,,,,,,,,,,,,,,,,,,,,,,,,,,,,,,,,,,,,,,,,,,,,,,,,,,,,,,,,,,,,,,,,,,,,
1606525021.784932,57.000000,0.000000,4205.769043,4196.666504,4200.641113,4201.666504,4191.794922,4217.948730,4202.051270,4183.077148,4215.512695,4214.358887,4215.769043,4217.820313,4226.153809,4204.358887,0.000000,2.000000,,,,0.000000,4.000000,4.000000,4.000000,4.000000,4.000000,4.000000,4.000000,4.000000,4.000000,4.000000,4.000000,4.000000,4.000000,4.000000,100.000000,,,,,,,,,,,,,,,,,,,,,,,,,,,,,,,,,,,,,,,,,,,,,,,,,,,,,,,,,,,,,,,,,,,,,,,,,,,,,,,,,,,,,,,,,,,,,,,,,,,,,,,,,,,,,,,,,
1606525021.792828,58.000000,0.000000,4200.512695,4182.820313,4201.025879,4201.153809,4191.666504,4205.384766,4207.820313,4188.717773,4214.102539,4227.179688,4227.692383,4224.743652,4241.666504,4211.153809,0.000000,2.000000,,,,0.000000,4.000000,4.000000,4.000000,4.000000,4.000000,4.000000,4.000000,4.000000,4.000000,4.000000,4.000000,4.000000,4.000000,4.000000,100.000000,,,,,,,,,,,,,,,,,,,,,,,,,,,,,,,,,,,,,,,,,,,,,,,,,,,,,,,,,,,,,,,,,,,,,,,,,,,,,,,,,,,,,,,,,,,,,,,,,,,,,,,,,,,,,,,,,
1606525021.800823,59.000000,0.000000,4198.717773,4177.051270,4209.743652,4195.000000,4196.538574,4206.153809,4216.794922,4211.794922,4231.538574,4247.820313,4237.563965,4236.922852,4240.897461,4221.794922,0.000000,2.000000,,,,0.000000,4.000000,4.000000,4.000000,4.000000,4.000000,4.000000,4.000000,4.000000,4.000000,4.000000,4.000000,4.000000,4.000000,4.000000,100.000000,,,,,,,,,,,,,,,,,,,,,,,,,,,,,,,,,,,,,,,,,,,,,,,,,,,,,,,,,,,,,,,,,,,,,,,,,,,,,,,,,,,,,,,,,,,,,,,,,,,,,,,,,,,,,,,,,
1606525021.808719,60.000000,0.000000,4200.769043,4178.461426,4210.897461,4193.077148,4192.051270,4211.025879,4210.000000,4210.641113,4230.769043,4239.871582,4225.897461,4231.282227,4231.922852,4217.820313,0.000000,2.000000,,,,0.000000,4.000000,4.000000,4.000000,4.000000,4.000000,4.000000,4.000000,4.000000,4.000000,4.000000,4.000000,4.000000,4.000000,4.000000,100.000000,15.000000,0.000000,0.598518,0.011902,-0.772095,0.213318,0.965347,-0.321294,-0.195315,-36.487373,-120.228882,6.878767,,,,,,,,,,,,,,,,,,,,,,,,,,,,,,,,,,,,,,,,,,,,,,,,,,,,,,,,,,,,,,,,,,,,,,,,,,,,,,,,,,,,,,,,,,,,,,,,,,,,,
1606525021.816615,61.000000,0.000000,4200.641113,4176.922852,4199.487305,4193.077148,4185.384766,4207.820313,4208.717773,4195.769043,4214.743652,4209.615234,4209.743652,4219.487305,4217.692383,4203.846191,0.000000,2.000000,,,,0.000000,4.000000,4.000000,4.000000,4.000000,4.000000,4.000000,4.000000,4.000000,4.000000,4.000000,4.000000,4.000000,4.000000,4.000000,100.000000,,,,,,,,,,,,,,,,,,,,,,,,,,,,,,,,,,,,,,,,,,,,,,,,,,,,,,,,,,,,,,,,,,,,,,,,,,,,,,,,,,,,,,,,,,,,,,,,,,,,,,,,,,,,,,,,,
1606525021.824311,62.000000,0.000000,4209.487305,4186.282227,4203.461426,4203.333496,4203.205078,4207.436035,4226.153809,4212.948730,4228.205078,4217.820313,4224.102539,4229.102539,4223.717773,4211.025879,0.000000,2.000000,,,,0.000000,4.000000,4.000000,4.000000,4.000000,4.000000,4.000000,4.000000,4.000000,4.000000,4.000000,4.000000,4.000000,4.000000,4.000000,100.000000,,,,,,,,,,,,,,,,,,,,,,,,,,,,,,,,,,,,,,,,,,,,,,,,,,,,,,,,,,,,,,,,,,,,,,,,,,,,,,,,,,,,,,,,,,,,,,,,,,,,,,,,,,,,,,,,,
1606525021.832106,63.000000,0.000000,4210.000000,4191.282227,4207.820313,4210.512695,4211.666504,4210.256348,4225.000000,4225.000000,4241.282227,4244.102539,4233.717773,4234.487305,4237.948730,4219.743652,0.000000,2.000000,,,,0.000000,4.000000,4.000000,4.000000,4.000000,4.000000,4.000000,4.000000,4.000000,4.000000,4.000000,4.000000,4.000000,4.000000,4.000000,100.000000,,,,,,,,,,,,,,,,,,,,,,,,,,,,,,,,,,,,,,,,,,,,8.431573,2.420913,1.275212,1.051448,0.468265,9.936157,3.834006,5.586786,2.027924,0.637260,5.329367,1.058966,0.671268,0.786851,0.460460,2.225297,1.106027,2.005983,0.563076,0.377167,2.665784,2.247015,0.879860,0.459173,0.448118,1.563275,0.282604,0.299272,0.262210,0.372994,1.401855,0.843517,0.284114,0.320895,0.432501,3.036859,1.239320,1.006704,0.538469,0.818470,1.322469,1.155410,1.303059,0.440423,0.478797,1.914025,0.916893,2.477329,0.538095,1.312286,5.186204,1.181281,0.907091,0.625841,0.843119,4.625804,0.816823,0.687712,0.753417,0.494645,13.946823,4.364043,2.974393,1.347692,0.889134,13.188664,2.209946,2.246850,1.441304,0.670086
1606525021.839902,64.000000,0.000000,4210.641113,4183.717773,4212.436035,4198.717773,4198.077148,4213.461426,4211.922852,4203.846191,4226.153809,4231.153809,4223.333496,4235.641113,4239.487305,4215.000000,3316.000000,2.000000,,,,0.000000,4.000000,4.000000,4.000000,4.000000,4.000000,4.000000,4.000000,4.000000,4.000000,4.000000,4.000000,4.000000,4.000000,4.000000,100.000000,16.000000,0.000000,0.598192,0.012268,-0.772156,0.213989,0.953628,-0.326665,-0.196292,-34.692913,-118.583961,5.084306,,,,,,,,,,,,,,,,,,,,,,,,,,,,,,,,,,,,,,,,,,,,,,,,,,,,,,,,,,,,,,,,,,,,,,,,,,,,,,,,,,,,,,,,,,,,,,,,,,,,,
1606525021.847598,65.000000,0.000000,4209.358887,4184.102539,4215.897461,4193.846191,4202.820313,4208.974121,4205.769043,4192.179688,4221.025879,4214.871582,4224.102539,4236.794922,4241.410156,4220.256348,3518.000000,2.000000,,,,0.000000,4.000000,4.000000,4.000000,4.000000,4.000000,4.000000,4.000000,4.000000,4.000000,4.000000,4.000000,4.000000,4.000000,4.000000,100.000000,,,,,,,,,,,,,,,,,,,,,,,,,,,,,,,,,,,,,,,,,,,,,,,,,,,,,,,,,,,,,,,,,,,,,,,,,,,,,,,,,,,,,,,,,,,,,,,,,,,,,,,,,,,,,,,,,
1606525021.855294,66.000000,0.000000,4216.025879,4190.384766,4218.974121,4202.563965,4215.641113,4210.000000,4208.974121,4202.051270,4225.384766,4219.487305,4226.666504,4237.820313,4237.692383,4225.897461,3176.000000,2.000000,,,,0.000000,4.000000,4.000000,4.000000,4.000000,4.000000,4.000000,4.000000,4.000000,4.000000,4.000000,4.000000,4.000000,4.000000,4.000000,100.000000,,,,,,,,,,,,,,,,,,,,,,,,,,,,,,,,,,,,,,,,,,,,,,,,,,,,,,,,,,,,,,,,,,,,,,,,,,,,,,,,,,,,,,,,,,,,,,,,,,,,,,,,,,,,,,,,,
1606525021.863090,67.000000,0.000000,4206.410156,4187.948730,4210.512695,4201.282227,4201.025879,4205.384766,4200.000000,4194.871582,4214.743652,4218.077148,4218.461426,4224.743652,4231.538574,4217.948730,3596.000000,2.000000,,,,0.000000,4.000000,4.000000,4.000000,4.000000,4.000000,4.000000,4.000000,4.000000,4.000000,4.000000,4.000000,4.000000,4.000000,4.000000,100.000000,,,,,,,,,,,,,,,,,,,,,,,,,,,,,,,,,,,,,,,,,,,,,,,,,,,,,,,,,,,,,,,,,,,,,,,,,,,,,,,,,,,,,,,,,,,,,,,,,,,,,,,,,,,,,,,,,
1606525021.870786,68.000000,0.000000,4208.717773,4178.846191,4213.974121,4189.615234,4181.282227,4199.230957,4189.615234,4183.461426,4207.179688,4215.256348,4209.743652,4221.410156,4228.717773,4209.487305,3569.000000,2.000000,,,,0.000000,4.000000,4.000000,4.000000,4.000000,4.000000,4.000000,4.000000,4.000000,4.000000,4.000000,4.000000,4.000000,4.000000,4.000000,100.000000,17.000000,0.000000,0.597888,0.013184,-0.772156,0.214783,0.954116,-0.326177,-0.193362,-36.337833,-118.583961,5.831998,,,,,,,,,,,,,,,,,,,,,,,,,,,,,,,,,,,,,,,,,,,,,,,,,,,,,,,,,,,,,,,,,,,,,,,,,,,,,,,,,,,,,,,,,,,,,,,,,,,,,
1606525021.878482,69.000000,0.000000,4211.025879,4188.974121,4219.230957,4199.743652,4202.179688,4203.461426,4193.589844,4199.743652,4220.000000,4239.102539,4218.077148,4226.153809,4235.256348,4217.948730,2657.000000,2.000000,,,,0.000000,4.000000,4.000000,4.000000,4.000000,4.000000,4.000000,4.000000,4.000000,4.000000,4.000000,4.000000,4.000000,4.000000,4.000000,100.000000,,,,,,,,,,,,,,,,,,,,,,,,,,,,,,,,,,,,,,,,,,,,,,,,,,,,,,,,,,,,,,,,,,,,,,,,,,,,,,,,,,,,,,,,,,,,,,,,,,,,,,,,,,,,,,,,,
1606525021.886178,70.000000,0.000000,4212.436035,4198.077148,4213.461426,4212.179688,4213.846191,4210.641113,4199.102539,4205.512695,4216.153809,4237.436035,4218.846191,4225.000000,4233.974121,4218.846191,3301.000000,2.000000,,,,0.000000,4.000000,4.000000,4.000000,4.000000,4.000000,4.000000,4.000000,4.000000,4.000000,4.000000,4.000000,4.000000,4.000000,4.000000,100.000000,,,,,,,,,,,,,,,,,,,,,,,,,,,,,,,,,,,,,,,,,,,,,,,,,,,,,,,,,,,,,,,,,,,,,,,,,,,,,,,,,,,,,,,,,,,,,,,,,,,,,,,,,,,,,,,,,
1606525021.893774,71.000000,0.000000,4195.128418,4190.897461,4199.102539,4203.846191,4195.897461,4201.282227,4191.538574,4189.230957,4207.692383,4206.794922,4205.128418,4209.615234,4220.512695,4203.461426,3318.000000,2.000000,,,,0.000000,4.000000,4.000000,4.000000,4.000000,4.000000,4.000000,4.000000,4.000000,4.000000,4.000000,4.000000,4.000000,4.000000,4.000000,100.000000,,,,,,,,,,,,,,,,,,,,,,,,,,,,,,,,,,,,,,,,,,,,,,,,,,,,,,,,,,,,,,,,,,,,,,,,,,,,,,,,,,,,,,,,,,,,,,,,,,,,,,,,,,,,,,,,,
1606525021.901470,72.000000,0.000000,4187.051270,4172.820313,4187.563965,4183.077148,4179.230957,4194.871582,4177.307617,4176.538574,4197.307617,4179.743652,4185.897461,4197.179688,4197.563965,4185.128418,3328.000000,2.000000,,,,0.000000,4.000000,4.000000,4.000000,4.000000,4.000000,4.000000,4.000000,4.000000,4.000000,4.000000,4.000000,4.000000,4.000000,4.000000,100.000000,18.000000,0.000000,0.597649,0.013489,-0.772217,0.215210,0.959487,-0.339361,-0.184573,-36.337833,-120.527962,5.084306,,,,,,,,,,,,,,,,,,,,,,,,,,,,,,,,,,,,,,,,,,,,,,,,,,,,,,,,,,,,,,,,,,,,,,,,,,,,,,,,,,,,,,,,,,,,,,,,,,,,,
1606525021.909165,73.000000,0.000000,4182.692383,4169.358887,4181.538574,4180.897461,4184.230957,4196.666504,4176.025879,4173.461426,4185.769043,4181.282227,4182.051270,4191.922852,4193.846191,4180.897461,3597.000000,2.000000,,,,0.000000,4.000000,4.000000,4.000000,4.000000,4.000000,4.000000,4.000000,4.000000,4.000000,4.000000,4.000000,4.000000,4.000000,4.000000,100.000000,,,,,,,,,,,,,,,,,,,,,,,,,,,,,,,,,,,,,,,,,,,,,,,,,,,,,,,,,,,,,,,,,,,,,,,,,,,,,,,,,,,,,,,,,,,,,,,,,,,,,,,,,,,,,,,,,
1606525021.916861,74.000000,0.000000,4182.307617,4168.717773,4186.794922,4195.128418,4187.179688,4197.948730,4186.153809,4167.563965,4186.666504,4189.743652,4180.384766,4188.846191,4198.717773,4175.256348,3456.000000,2.000000,,,,0.000000,4.000000,4.000000,4.000000,4.000000,4.000000,4.000000,4.000000,4.000000,4.000000,4.000000,4.000000,4.000000,4.000000,4.000000,100.000000,,,,,,,,,,,,,,,,,,,,,,,,,,,,,,,,,,,,,,,,,,,,,,,,,,,,,,,,,,,,,,,,,,,,,,,,,,,,,,,,,,,,,,,,,,,,,,,,,,,,,,,,,,,,,,,,,
1606525021.924857,75.000000,0.000000,4177.692383,4161.410156,4185.512695,4193.205078,4180.000000,4191.794922,4188.461426,4163.974121,4192.820313,4185.128418,4174.743652,4184.102539,4190.512695,4166.410156,3525.000000,2.000000,,,,0.000000,4.000000,4.000000,4.000000,4.000000,4.000000,4.000000,4.000000,4.000000,4.000000,4.000000,4.000000,4.000000,4.000000,4.000000,100.000000,,,,,,,,,,,,,,,,,,,,,,,,,,,,,,,,,,,,,,,,,,,,,,,,,,,,,,,,,,,,,,,,,,,,,,,,,,,,,,,,,,,,,,,,,,,,,,,,,,,,,,,,,,,,,,,,,
1606525021.932753,76.000000,0.000000,4180.769043,4161.025879,4181.666504,4174.615234,4178.974121,4188.205078,4182.051270,4168.589844,4189.615234,4189.871582,4182.436035,4189.230957,4189.871582,4175.128418,3462.000000,2.000000,,,,0.000000,4.000000,4.000000,4.000000,4.000000,4.000000,4.000000,4.000000,4.000000,4.000000,4.000000,4.000000,4.000000,4.000000,4.000000,100.000000,19.000000,0.000000,0.596418,0.015625,-0.772461,0.217590,0.962905,-0.329107,-0.196292,-36.337833,-119.331657,7.028306,,,,,,,,,,,,,,,,,,,,,,,,,,,,,,,,,,,,,,,,,,,,,,,,,,,,,,,,,,,,,,,,,,,,,,,,,,,,,,,,,,,,,,,,,,,,,,,,,,,,,
1606525021.940648,77.000000,0.000000,4189.230957,4169.102539,4189.358887,4172.692383,4186.282227,4188.974121,4186.794922,4171.666504,4191.282227,4210.128418,4191.538574,4200.256348,4202.948730,4184.358887,3178.000000,2.000000,,,,0.000000,4.000000,4.000000,4.000000,4.000000,4.000000,4.000000,4.000000,4.000000,4.000000,4.000000,4.000000,4.000000,4.000000,4.000000,100.000000,,,,,,,,,,,,,,,,,,,,,,,,,,,,,,,,,,,,,,,,,,,,,,,,,,,,,,,,,,,,,,,,,,,,,,,,,,,,,,,,,,,,,,,,,,,,,,,,,,,,,,,,,,,,,,,,,
1606525021.948344,78.000000,0.000000,4189.743652,4181.922852,4197.820313,4186.922852,4194.487305,4193.333496,4195.384766,4175.000000,4204.743652,4222.563965,4187.307617,4202.692383,4205.641113,4180.256348,3456.000000,2.000000,,,,0.000000,4.000000,4.000000,4.000000,4.000000,4.000000,4.000000,4.000000,4.000000,4.000000,4.000000,4.000000,4.000000,4.000000,4.000000,100.000000,,,,,,,,,,,,,,,,,,,,,,,,,,,,,,,,,,,,,,,,,,,,,,,,,,,,,,,,,,,,,,,,,,,,,,,,,,,,,,,,,,,,,,,,,,,,,,,,,,,,,,,,,,,,,,,,,
1606525021.956140,79.000000,0.000000,4193.205078,4184.487305,4202.436035,4190.384766,4194.230957,4195.641113,4192.179688,4179.102539,4204.871582,4210.000000,4187.179688,4208.974121,4195.000000,4177.820313,3525.000000,2.000000,,,,0.000000,4.000000,4.000000,4.000000,4.000000,4.000000,4.000000,4.000000,4.000000,4.000000,4.000000,4.000000,4.000000,4.000000,4.000000,100.000000,,,,,,,,,,,,,,,,,,,,,,,,,,,,,,,,,,,,,,,,,,,,7.970921,1.914052,1.169803,1.090573,0.442397,8.469204,2.920135,4.563260,1.703808,0.713116,4.783478,1.016292,0.715804,0.870884,0.425719,2.112292,1.152721,1.754563,0.509976,0.353816,2.809631,2.297909,0.964934,0.429074,0.463673,1.399730,0.242288,0.318645,0.247442,0.339853,1.511275,0.880842,0.324973,0.312887,0.435517,3.068331,1.338419,1.015885,0.523155,0.855869,1.267746,1.188216,1.245198,0.413164,0.489635,1.934921,0.945512,2.276529,0.662995,1.117841,4.555926,1.119567,0.870502,0.630019,0.749198,4.227352,0.553396,0.730028,0.785506,0.487468,12.919043,4.067400,2.576704,1.437852,0.808773,11.837429,1.860448,2.204079,1.457753,0.635151
1606525021.963836,80.000000,0.000000,4186.025879,4172.179688,4194.487305,4183.077148,4186.025879,4187.820313,4174.102539,4168.589844,4188.717773,4198.846191,4194.358887,4210.384766,4189.871582,4179.230957,3462.000000,2.000000,,,,0.000000,4.000000,4.000000,4.000000,4.000000,4.000000,4.000000,4.000000,4.000000,4.000000,4.000000,4.000000,4.000000,4.000000,4.000000,100.000000,20.000000,0.000000,0.595347,0.017822,-0.772583,0.219910,0.947768,-0.349126,-0.215824,-36.337833,-118.583961,5.084306,,,,,,,,,,,,,,,,,,,,,,,,,,,,,,,,,,,,,,,,,,,,,,,,,,,,,,,,,,,,,,,,,,,,,,,,,,,,,,,,,,,,,,,,,,,,,,,,,,,,,
1606525021.971732,81.000000,0.000000,4188.077148,4161.538574,4193.205078,4181.410156,4177.436035,4186.538574,4168.717773,4159.743652,4179.487305,4196.794922,4195.128418,4212.051270,4194.871582,4175.769043,3178.000000,2.000000,,,,0.000000,4.000000,4.000000,4.000000,4.000000,4.000000,4.000000,4.000000,4.000000,4.000000,4.000000,4.000000,4.000000,4.000000,4.000000,100.000000,,,,,,,,,,,,,,,,,,,,,,,,,,,,,,,,,,,,,,,,,,,,,,,,,,,,,,,,,,,,,,,,,,,,,,,,,,,,,,,,,,,,,,,,,,,,,,,,,,,,,,,,,,,,,,,,,
1606525021.979627,82.000000,0.000000,4188.333496,4168.077148,4196.666504,4188.077148,4177.948730,4183.974121,4176.153809,4168.589844,4184.487305,4185.384766,4196.922852,4214.230957,4207.051270,4179.487305,3456.000000,2.000000,,,,0.000000,4.000000,4.000000,4.000000,4.000000,4.000000,4.000000,4.000000,4.000000,4.000000,4.000000,4.000000,4.000000,4.000000,4.000000,100.000000,,,,,,,,,,,,,,,,,,,,,,,,,,,,,,,,,,,,,,,,,,,,,,,,,,,,,,,,,,,,,,,,,,,,,,,,,,,,,,,,,,,,,,,,,,,,,,,,,,,,,,,,,,,,,,,,,
1606525021.987623,83.000000,0.000000,4197.563965,4171.153809,4204.230957,4192.820313,4180.641113,4184.230957,4179.743652,4171.025879,4181.666504,4172.179688,4196.794922,4221.282227,4208.077148,4183.589844,3525.000000,2.000000,,,,0.000000,4.000000,4.000000,4.000000,4.000000,4.000000,4.000000,4.000000,4.000000,4.000000,4.000000,4.000000,4.000000,4.000000,4.000000,100.000000,,,,,,,,,,,,,,,,,,,,,,,,,,,,,,,,,,,,,,,,,,,,,,,,,,,,,,,,,,,,,,,,,,,,,,,,,,,,,,,,,,,,,,,,,,,,,,,,,,,,,,,,,,,,,,,,,
1606525021.995519,84.000000,0.000000,4188.461426,4164.102539,4197.948730,4193.846191,4178.589844,4180.897461,4172.179688,4160.384766,4175.512695,4191.794922,4190.384766,4214.102539,4197.563965,4182.051270,3462.000000,2.000000,,,,0.000000,4.000000,4.000000,4.000000,4.000000,4.000000,4.000000,4.000000,4.000000,4.000000,4.000000,4.000000,4.000000,4.000000,4.000000,100.000000,21.000000,0.000000,0.595136,0.018433,-0.772644,0.220215,0.966812,-0.340826,-0.203616,-37.683681,-118.733498,5.233844,,,,,,,,,,,,,,,,,,,,,,,,,,,,,,,,,,,,,,,,,,,,,,,,,,,,,,,,,,,,,,,,,,,,,,,,,,,,,,,,,,,,,,,,,,,,,,,,,,,,,
1606525022.003315,85.000000,0.000000,4191.794922,4162.307617,4202.820313,4189.871582,4179.358887,4185.897461,4180.128418,4171.666504,4187.436035,4222.307617,4191.153809,4217.948730,4195.641113,4185.256348,3178.000000,2.000000,,,,0.000000,4.000000,4.000000,4.000000,4.000000,4.000000,4.000000,4.000000,4.000000,4.000000,4.000000,4.000000,4.000000,4.000000,4.000000,100.000000,,,,,,,,,,,,,,,,,,,,,,,,,,,,,,,,,,,,,,,,,,,,,,,,,,,,,,,,,,,,,,,,,,,,,,,,,,,,,,,,,,,,,,,,,,,,,,,,,,,,,,,,,,,,,,,,,
1606525022.011010,86.000000,0.000000,4197.948730,4170.512695,4210.769043,4190.000000,4195.000000,4193.974121,4190.512695,4187.051270,4202.820313,4226.922852,4200.384766,4222.820313,4209.871582,4194.358887,3456.000000,2.000000,,,,0.000000,4.000000,4.000000,4.000000,4.000000,4.000000,4.000000,4.000000,4.000000,4.000000,4.000000,4.000000,4.000000,4.000000,4.000000,100.000000,,,,,,,,,,,,,,,,,,,,,,,,,,,,,,,,,,,,,,,,,,,,,,,,,,,,,,,,,,,,,,,,,,,,,,,,,,,,,,,,,,,,,,,,,,,,,,,,,,,,,,,,,,,,,,,,,
1606525022.018606,87.000000,0.000000,4200.641113,4169.358887,4203.461426,4187.179688,4194.871582,4196.025879,4180.897461,4174.871582,4187.307617,4208.717773,4192.051270,4213.717773,4208.461426,4191.153809,3525.000000,2.000000,,,,0.000000,4.000000,4.000000,4.000000,4.000000,4.000000,4.000000,4.000000,4.000000,4.000000,4.000000,4.000000,4.000000,4.000000,4.000000,100.000000,,,,,,,,,,,,,,,,,,,,,,,,,,,,,,,,,,,,,,,,,,,,,,,,,,,,,,,,,,,,,,,,,,,,,,,,,,,,,,,,,,,,,,,,,,,,,,,,,,,,,,,,,,,,,,,,,
1606525022.026302,88.000000,0.000000,4189.230957,4166.794922,4188.461426,4185.256348,4187.692383,4186.922852,4173.333496,4170.641113,4179.487305,4209.615234,4187.307617,4204.871582,4195.384766,4182.692383,3462.000000,2.000000,,,,0.000000,4.000000,4.000000,4.000000,4.000000,4.000000,4.000000,4.000000,4.000000,4.000000,4.000000,4.000000,4.000000,4.000000,4.000000,100.000000,22.000000,0.000000,0.596005,0.016846,-0.772461,0.218628,0.955581,-0.333013,-0.202152,-35.440605,-120.827042,7.327382,,,,,,,,,,,,,,,,,,,,,,,,,,,,,,,,,,,,,,,,,,,,,,,,,,,,,,,,,,,,,,,,,,,,,,,,,,,,,,,,,,,,,,,,,,,,,,,,,,,,,
