title:parker new nback trial 2 redo, start timestamp:1606524534.885781, stop timestamp:1606524591.582438, headset type:EPOCPLUS, headset serial:4A2C14BBFA, headset firmware:634, channels:151, sampling rate:eeg_128;mot_32;pm_0.1;pow_8, samples:7273      , version:2.0
Timestamp,EEG.Counter,EEG.Interpolated,EEG.AF3,EEG.F7,EEG.F3,EEG.FC5,EEG.T7,EEG.P7,EEG.O1,EEG.O2,EEG.P8,EEG.T8,EEG.FC6,EEG.F4,EEG.F8,EEG.AF4,EEG.RawCq,EEG.Battery,MarkerIndex,MarkerType,MarkerValueInt,EEG.MarkerHardware,CQ.AF3,CQ.F7,CQ.F3,CQ.FC5,CQ.T7,CQ.P7,CQ.O1,CQ.O2,CQ.P8,CQ.T8,CQ.FC6,CQ.F4,CQ.F8,CQ.AF4,CQ.Overall,MOT.CounterMems,MOT.InterpolatedMems,MOT.Q0,MOT.Q1,MOT.Q2,MOT.Q3,MOT.AccX,MOT.AccY,MOT.AccZ,MOT.MagX,MOT.MagY,MOT.MagZ,PM.Engagement.IsActive,PM.Engagement.Scaled,PM.Engagement.Raw,PM.Engagement.Min,PM.Engagement.Max,PM.Excitement.IsActive,PM.Excitement.Scaled,PM.Excitement.Raw,PM.Excitement.Min,PM.Excitement.Max,PM.LongTermExcitement,PM.Stress.IsActive,PM.Stress.Scaled,PM.Stress.Raw,PM.Stress.Min,PM.Stress.Max,PM.Relaxation.IsActive,PM.Relaxation.Scaled,PM.Relaxation.Raw,PM.Relaxation.Min,PM.Relaxation.Max,PM.Interest.IsActive,PM.Interest.Scaled,PM.Interest.Raw,PM.Interest.Min,PM.Interest.Max,PM.Focus.IsActive,PM.Focus.Scaled,PM.Focus.Raw,PM.Focus.Min,PM.Focus.Max,POW.AF3.Theta,POW.AF3.Alpha,POW.AF3.BetaL,POW.AF3.BetaH,POW.AF3.Gamma,POW.F7.Theta,POW.F7.Alpha,POW.F7.BetaL,POW.F7.BetaH,POW.F7.Gamma,POW.F3.Theta,POW.F3.Alpha,POW.F3.BetaL,POW.F3.BetaH,POW.F3.Gamma,POW.FC5.Theta,POW.FC5.Alpha,POW.FC5.BetaL,POW.FC5.BetaH,POW.FC5.Gamma,POW.T7.Theta,POW.T7.Alpha,POW.T7.BetaL,POW.T7.BetaH,POW.T7.Gamma,POW.P7.Theta,POW.P7.Alpha,POW.P7.BetaL,POW.P7.BetaH,POW.P7.Gamma,POW.O1.Theta,POW.O1.Alpha,POW.O1.BetaL,POW.O1.BetaH,POW.O1.Gamma,POW.O2.Theta,POW.O2.Alpha,POW.O2.BetaL,POW.O2.BetaH,POW.O2.Gamma,POW.P8.Theta,POW.P8.Alpha,POW.P8.BetaL,POW.P8.BetaH,POW.P8.Gamma,POW.T8.Theta,POW.T8.Alpha,POW.T8.BetaL,POW.T8.BetaH,POW.T8.Gamma,POW.FC6.Theta,POW.FC6.Alpha,POW.FC6.BetaL,POW.FC6.BetaH,POW.FC6.Gamma,POW.F4.Theta,POW.F4.Alpha,POW.F4.BetaL,POW.F4.BetaH,POW.F4.Gamma,POW.F8.Theta,POW.F8.Alpha,POW.F8.BetaL,POW.F8.BetaH,POW.F8.Gamma,POW.AF4.Theta,POW.AF4.Alpha,POW.AF4.BetaL,POW.AF4.BetaH,POW.AF4.Gamma
1606524534.885781,64.000000,0.000000,4249.102539,4227.307617,4218.333496,4219.615234,4228.846191,4206.025879,4221.538574,4192.051270,4201.153809,4196.794922,4217.051270,4224.358887,4249.743652,4231.025879,3345.000000,2.000000,,,,0.000000,4.000000,4.000000,4.000000,4.000000,4.000000,4.000000,4.000000,4.000000,4.000000,4.000000,4.000000,4.000000,4.000000,4.000000,100.000000,16.000000,0.000000,0.642360,-0.093445,-0.750916,0.121521,0.944839,-0.334478,-0.154788,-35.141529,-118.284889,5.831998,,,,,,,,,,,,,,,,,,,,,,,,,,,,,,,,,,,,,,,,,,,,,,,,,,,,,,,,,,,,,,,,,,,,,,,,,,,,,,,,,,,,,,,,,,,,,,,,,,,,,
1606524534.893677,65.000000,0.000000,4246.410156,4223.974121,4218.461426,4218.717773,4233.717773,4207.563965,4208.077148,4188.333496,4193.846191,4209.743652,4216.922852,4225.897461,4246.410156,4231.922852,3544.000000,2.000000,,,,0.000000,4.000000,4.000000,4.000000,4.000000,4.000000,4.000000,4.000000,4.000000,4.000000,4.000000,4.000000,4.000000,4.000000,4.000000,100.000000,,,,,,,,,,,,,,,,,,,,,,,,,,,,,,,,,,,,,,,,,,,,,,,,,,,,,,,,,,,,,,,,,,,,,,,,,,,,,,,,,,,,,,,,,,,,,,,,,,,,,,,,,,,,,,,,,
1606524534.901373,66.000000,0.000000,4239.743652,4215.512695,4204.615234,4211.282227,4215.000000,4196.025879,4200.000000,4181.410156,4185.512695,4210.512695,4201.282227,4219.487305,4231.282227,4220.256348,3249.000000,2.000000,,,,0.000000,4.000000,4.000000,4.000000,4.000000,4.000000,4.000000,4.000000,4.000000,4.000000,4.000000,4.000000,4.000000,4.000000,4.000000,100.000000,,,,,,,,,,,,,,,,,,,,,,,,,,,,,,,,,,,,,,,,,,,,,,,,,,,,,,,,,,,,,,,,,,,,,,,,,,,,,,,,,,,,,,,,,,,,,,,,,,,,,,,,,,,,,,,,,
1606524534.909169,67.000000,0.000000,4239.871582,4215.000000,4200.897461,4209.358887,4212.948730,4191.922852,4204.615234,4179.743652,4186.025879,4196.922852,4201.922852,4217.051270,4226.794922,4219.615234,3565.000000,2.000000,,,,0.000000,4.000000,4.000000,4.000000,4.000000,4.000000,4.000000,4.000000,4.000000,4.000000,4.000000,4.000000,4.000000,4.000000,4.000000,100.000000,,,,,,,,,,,,,,,,,,,,,,,,,,,,,,,,,,,,,,,,,,,,,,,,,,,,,,,,,,,,,,,,,,,,,,,,,,,,,,,,,,,,,,,,,,,,,,,,,,,,,,,,,,,,,,,,,
1606524534.916865,68.000000,0.000000,4241.922852,4215.384766,4209.743652,4210.641113,4218.461426,4196.282227,4203.077148,4184.871582,4191.025879,4191.025879,4215.000000,4220.000000,4229.871582,4226.025879,3551.000000,2.000000,,,,0.000000,4.000000,4.000000,4.000000,4.000000,4.000000,4.000000,4.000000,4.000000,4.000000,4.000000,4.000000,4.000000,4.000000,4.000000,100.000000,17.000000,0.000000,0.642346,-0.092957,-0.751038,0.121216,0.947280,-0.313970,-0.153323,-35.141529,-118.284889,6.579690,,,,,,,,,,,,,,,,,,,,,,,,,,,,,,,,,,,,,,,,,,,,,,,,,,,,,,,,,,,,,,,,,,,,,,,,,,,,,,,,,,,,,,,,,,,,,,,,,,,,,
1606524534.924561,69.000000,0.000000,4240.000000,4215.897461,4209.358887,4204.487305,4207.051270,4194.102539,4198.717773,4184.358887,4187.307617,4197.051270,4214.358887,4220.000000,4227.436035,4222.436035,2589.000000,2.000000,,,,0.000000,4.000000,4.000000,4.000000,4.000000,4.000000,4.000000,4.000000,4.000000,4.000000,4.000000,4.000000,4.000000,4.000000,4.000000,100.000000,,,,,,,,,,,,,,,,,,,,,,,,,,,,,,,,,,,,,,,,,,,,,,,,,,,,,,,,,,,,,,,,,,,,,,,,,,,,,,,,,,,,,,,,,,,,,,,,,,,,,,,,,,,,,,,,,
1606524534.932257,70.000000,0.000000,4236.666504,4209.871582,4204.615234,4201.922852,4206.410156,4192.179688,4201.282227,4185.384766,4183.974121,4194.358887,4206.538574,4215.897461,4221.153809,4221.410156,3191.000000,2.000000,,,,0.000000,4.000000,4.000000,4.000000,4.000000,4.000000,4.000000,4.000000,4.000000,4.000000,4.000000,4.000000,4.000000,4.000000,4.000000,100.000000,,,,,,,,,,,,,,,,,,,,,,,,,,,,,,,,,,,,,,,,,,,,,,,,,,,,,,,,,,,,,,,,,,,,,,,,,,,,,,,,,,,,,,,,,,,,,,,,,,,,,,,,,,,,,,,,,
1606524534.940052,71.000000,0.000000,4231.282227,4194.615234,4203.461426,4201.282227,4217.563965,4198.205078,4202.692383,4192.436035,4189.230957,4177.436035,4202.307617,4214.743652,4204.102539,4218.077148,3366.000000,2.000000,,,,0.000000,4.000000,4.000000,4.000000,4.000000,4.000000,4.000000,4.000000,4.000000,4.000000,4.000000,4.000000,4.000000,4.000000,4.000000,100.000000,,,,,,,,,,,,,,,,,,,,,,,,,,,,,,,,,,,,,,,,,,,,,,,,,,,,,,,,,,,,,,,,,,,,,,,,,,,,,,,,,,,,,,,,,,,,,,,,,,,,,,,,,,,,,,,,,
1606524534.947748,72.000000,0.000000,4234.487305,4204.102539,4210.000000,4202.436035,4220.256348,4203.589844,4201.922852,4196.282227,4194.487305,4175.769043,4212.436035,4224.487305,4207.179688,4220.128418,3302.000000,2.000000,,,,0.000000,4.000000,4.000000,4.000000,4.000000,4.000000,4.000000,4.000000,4.000000,4.000000,4.000000,4.000000,4.000000,4.000000,4.000000,100.000000,18.000000,0.000000,0.642629,-0.093506,-0.750854,0.120422,0.946792,-0.315923,-0.155764,-36.038757,-119.481194,7.626459,,,,,,,,,,,,,,,,,,,,,,,,,,,,,,,,,,,,,,,,,,,,,,,,,,,,,,,,,,,,,,,,,,,,,,,,,,,,,,,,,,,,,,,,,,,,,,,,,,,,,
1606524534.955444,73.000000,0.000000,4241.410156,4220.000000,4213.077148,4202.436035,4216.922852,4200.769043,4204.615234,4195.641113,4198.077148,4196.538574,4226.025879,4233.205078,4229.615234,4232.563965,3617.000000,2.000000,,,,0.000000,4.000000,4.000000,4.000000,4.000000,4.000000,4.000000,4.000000,4.000000,4.000000,4.000000,4.000000,4.000000,4.000000,4.000000,100.000000,,,,,,,,,,,,,,,,,,,,,,,,,,,,,,,,,,,,,,,,,,,,,,,,,,,,,,,,,,,,,,,,,,,,,,,,,,,,,,,,,,,,,,,,,,,,,,,,,,,,,,,,,,,,,,,,,
1606524534.963140,74.000000,0.000000,4235.384766,4202.563965,4208.717773,4194.358887,4210.641113,4192.820313,4205.384766,4201.153809,4203.717773,4216.538574,4222.948730,4229.615234,4230.897461,4228.589844,3477.000000,2.000000,,,,0.000000,4.000000,4.000000,4.000000,4.000000,4.000000,4.000000,4.000000,4.000000,4.000000,4.000000,4.000000,4.000000,4.000000,4.000000,100.000000,,,,,,,,,,,,,,,,,,,,,,,,,,,,,,,,,,,,,,,,,,,,,,,,,,,,,,,,,,,,,,,,,,,,,,,,,,,,,,,,,,,,,,,,,,,,,,,,,,,,,,,,,,,,,,,,,
1606524534.970936,75.000000,0.000000,4228.205078,4186.538574,4206.410156,4192.563965,4198.461426,4187.307617,4202.179688,4204.358887,4205.256348,4215.641113,4214.743652,4225.769043,4221.538574,4215.256348,3532.000000,2.000000,,,,0.000000,4.000000,4.000000,4.000000,4.000000,4.000000,4.000000,4.000000,4.000000,4.000000,4.000000,4.000000,4.000000,4.000000,4.000000,100.000000,,,,,,,,,,,,,,,,,,,,,,,,,,,,,,,,,,,,,,,,,,,,,,,,,,,,,,,,,,,,,,,,,,,,,,,,,,,,,,,,,,,,,,,,,,,,,,,,,,,,,,,,,,,,,,,,,
1606524534.978832,76.000000,0.000000,4230.000000,4194.615234,4205.000000,4198.717773,4197.820313,4190.769043,4198.205078,4192.307617,4196.922852,4208.589844,4216.282227,4228.461426,4227.692383,4220.128418,3472.000000,2.000000,,,,0.000000,4.000000,4.000000,4.000000,4.000000,4.000000,4.000000,4.000000,4.000000,4.000000,4.000000,4.000000,4.000000,4.000000,4.000000,100.000000,19.000000,0.000000,0.643285,-0.095093,-0.750366,0.118713,0.966323,-0.318364,-0.149905,-36.337833,-119.032578,8.224613,,,,,,,,,,,,,,,,,,,,,,,,,,,,,,,,,,,,,,,,,,,,,,,,,,,,,,,,,,,,,,,,,,,,,,,,,,,,,,,,,,,,,,,,,,,,,,,,,,,,,
1606524534.986727,77.000000,0.000000,4234.230957,4201.922852,4208.461426,4203.205078,4215.384766,4196.282227,4197.692383,4187.307617,4199.102539,4213.205078,4223.333496,4232.179688,4235.000000,4231.282227,3226.000000,2.000000,,,,0.000000,4.000000,4.000000,4.000000,4.000000,4.000000,4.000000,4.000000,4.000000,4.000000,4.000000,4.000000,4.000000,4.000000,4.000000,100.000000,,,,,,,,,,,,,,,,,,,,,,,,,,,,,,,,,,,,,,,,,,,,,,,,,,,,,,,,,,,,,,,,,,,,,,,,,,,,,,,,,,,,,,,,,,,,,,,,,,,,,,,,,,,,,,,,,
1606524534.994423,78.000000,0.000000,4235.641113,4206.153809,4216.666504,4208.077148,4228.205078,4197.948730,4199.358887,4196.794922,4212.563965,4221.153809,4231.922852,4235.769043,4232.436035,4233.974121,3477.000000,2.000000,,,,0.000000,4.000000,4.000000,4.000000,4.000000,4.000000,4.000000,4.000000,4.000000,4.000000,4.000000,4.000000,4.000000,4.000000,4.000000,100.000000,,,,,,,,,,,,,,,,,,,,,,,,,,,,,,,,,,,,,,,,,,,,,,,,,,,,,,,,,,,,,,,,,,,,,,,,,,,,,,,,,,,,,,,,,,,,,,,,,,,,,,,,,,,,,,,,,
1606524535.002219,79.000000,0.000000,4237.436035,4213.589844,4218.205078,4214.743652,4229.358887,4201.153809,4198.589844,4200.256348,4214.615234,4216.282227,4234.871582,4235.256348,4230.512695,4232.948730,3532.000000,2.000000,,,,0.000000,4.000000,4.000000,4.000000,4.000000,4.000000,4.000000,4.000000,4.000000,4.000000,4.000000,4.000000,4.000000,4.000000,4.000000,100.000000,,,,,,,,,,,,,,,,,,,,,,,,,,,,,,,,,,,,,,,,,,,,2.593398,1.065184,0.662957,0.452579,0.519144,13.575440,3.861434,1.760108,1.490589,0.828928,1.677652,1.008423,0.844530,0.304564,0.435577,4.396979,1.654544,0.473172,0.713765,0.626498,0.853190,0.874439,0.540575,0.814332,1.062647,1.745736,0.588608,0.537715,0.221536,0.413637,5.034597,0.706338,0.848842,0.709041,0.555176,3.022067,1.574372,1.185926,0.756643,0.869646,2.124555,1.337146,1.089502,0.570864,0.771939,3.272023,5.224874,5.216398,1.749860,1.886397,3.178253,2.560362,1.095545,0.546307,0.785855,3.080432,0.966634,0.422915,0.370243,0.569023,4.845910,4.155120,1.322942,0.851004,0.805785,4.252708,1.676089,0.867828,0.658511,0.675046
1606524535.009915,80.000000,0.000000,4237.051270,4216.794922,4219.743652,4221.025879,4229.358887,4200.641113,4199.102539,4205.256348,4212.948730,4209.358887,4233.461426,4235.256348,4234.358887,4232.307617,3472.000000,2.000000,,,,0.000000,4.000000,4.000000,4.000000,4.000000,4.000000,4.000000,4.000000,4.000000,4.000000,4.000000,4.000000,4.000000,4.000000,4.000000,100.000000,20.000000,0.000000,0.643968,-0.097046,-0.749817,0.116882,0.958022,-0.308110,-0.146487,-36.487373,-117.985809,7.925536,,,,,,,,,,,,,,,,,,,,,,,,,,,,,,,,,,,,,,,,,,,,,,,,,,,,,,,,,,,,,,,,,,,,,,,,,,,,,,,,,,,,,,,,,,,,,,,,,,,,,
1606524535.017611,81.000000,0.000000,4229.615234,4217.436035,4225.512695,4224.615234,4232.948730,4192.436035,4195.512695,4217.179688,4216.410156,4215.769043,4238.205078,4238.846191,4241.153809,4239.102539,3226.000000,2.000000,,,,0.000000,4.000000,4.000000,4.000000,4.000000,4.000000,4.000000,4.000000,4.000000,4.000000,4.000000,4.000000,4.000000,4.000000,4.000000,100.000000,,,,,,,,,,,,,,,,,,,,,,,,,,,,,,,,,,,,,,,,,,,,,,,,,,,,,,,,,,,,,,,,,,,,,,,,,,,,,,,,,,,,,,,,,,,,,,,,,,,,,,,,,,,,,,,,,
1606524535.025507,82.000000,0.000000,4217.820313,4219.615234,4222.820313,4223.077148,4231.666504,4182.948730,4181.282227,4217.307617,4218.846191,4228.589844,4247.051270,4238.589844,4246.410156,4244.230957,3477.000000,2.000000,,,,0.000000,4.000000,4.000000,4.000000,4.000000,4.000000,4.000000,4.000000,4.000000,4.000000,4.000000,4.000000,4.000000,4.000000,4.000000,100.000000,,,,,,,,,,,,,,,,,,,,,,,,,,,,,,,,,,,,,,,,,,,,,,,,,,,,,,,,,,,,,,,,,,,,,,,,,,,,,,,,,,,,,,,,,,,,,,,,,,,,,,,,,,,,,,,,,
1606524535.033502,83.000000,0.000000,4211.922852,4218.589844,4218.974121,4217.307617,4232.820313,4181.025879,4175.512695,4211.666504,4220.512695,4245.256348,4249.102539,4239.871582,4252.692383,4240.000000,3532.000000,2.000000,,,,0.000000,4.000000,4.000000,4.000000,4.000000,4.000000,4.000000,4.000000,4.000000,4.000000,4.000000,4.000000,4.000000,4.000000,4.000000,100.000000,,,,,,,,,,,,,,,,,,,,,,,,,,,,,,,,,,,,,,,,,,,,,,,,,,,,,,,,,,,,,,,,,,,,,,,,,,,,,,,,,,,,,,,,,,,,,,,,,,,,,,,,,,,,,,,,,
1606524535.041398,84.000000,0.000000,4219.487305,4220.897461,4228.333496,4220.256348,4240.256348,4185.897461,4183.846191,4219.102539,4223.717773,4239.615234,4251.153809,4247.307617,4262.692383,4243.974121,3472.000000,2.000000,,,,0.000000,4.000000,4.000000,4.000000,4.000000,4.000000,4.000000,4.000000,4.000000,4.000000,4.000000,4.000000,4.000000,4.000000,4.000000,100.000000,21.000000,0.000000,0.644328,-0.097961,-0.749512,0.116089,0.971695,-0.316411,-0.142092,-35.291065,-119.481194,6.430152,,,,,,,,,,,,,,,,,,,,,,,,,,,,,,,,,,,,,,,,,,,,,,,,,,,,,,,,,,,,,,,,,,,,,,,,,,,,,,,,,,,,,,,,,,,,,,,,,,,,,
1606524535.049294,85.000000,0.000000,4219.358887,4219.102539,4226.153809,4220.897461,4230.512695,4186.666504,4185.000000,4218.205078,4218.205078,4212.307617,4248.846191,4244.615234,4253.974121,4245.256348,3226.000000,2.000000,,,,0.000000,4.000000,4.000000,4.000000,4.000000,4.000000,4.000000,4.000000,4.000000,4.000000,4.000000,4.000000,4.000000,4.000000,4.000000,100.000000,,,,,,,,,,,,,,,,,,,,,,,,,,,,,,,,,,,,,,,,,,,,,,,,,,,,,,,,,,,,,,,,,,,,,,,,,,,,,,,,,,,,,,,,,,,,,,,,,,,,,,,,,,,,,,,,,
1606524535.057189,86.000000,0.000000,4214.230957,4216.410156,4216.025879,4213.205078,4223.077148,4187.051270,4179.358887,4212.179688,4213.589844,4217.179688,4243.717773,4233.461426,4242.692383,4234.487305,3477.000000,2.000000,,,,0.000000,4.000000,4.000000,4.000000,4.000000,4.000000,4.000000,4.000000,4.000000,4.000000,4.000000,4.000000,4.000000,4.000000,4.000000,100.000000,,,,,,,,,,,,,,,,,,,,,,,,,,,,,,,,,,,,,,,,,,,,,,,,,,,,,,,,,,,,,,,,,,,,,,,,,,,,,,,,,,,,,,,,,,,,,,,,,,,,,,,,,,,,,,,,,
1606524535.065185,87.000000,0.000000,4224.230957,4222.179688,4217.692383,4215.128418,4232.436035,4189.871582,4182.179688,4226.025879,4220.769043,4237.051270,4248.717773,4232.948730,4255.512695,4232.051270,3532.000000,2.000000,,,,0.000000,4.000000,4.000000,4.000000,4.000000,4.000000,4.000000,4.000000,4.000000,4.000000,4.000000,4.000000,4.000000,4.000000,4.000000,100.000000,,,,,,,,,,,,,,,,,,,,,,,,,,,,,,,,,,,,,,,,,,,,,,,,,,,,,,,,,,,,,,,,,,,,,,,,,,,,,,,,,,,,,,,,,,,,,,,,,,,,,,,,,,,,,,,,,
1606524535.073081,88.000000,0.000000,4226.538574,4216.538574,4218.461426,4218.077148,4229.102539,4186.025879,4184.615234,4232.820313,4220.897461,4223.846191,4250.897461,4236.025879,4260.897461,4233.717773,3472.000000,2.000000,,,,0.000000,4.000000,4.000000,4.000000,4.000000,4.000000,4.000000,4.000000,4.000000,4.000000,4.000000,4.000000,4.000000,4.000000,4.000000,100.000000,22.000000,0.000000,0.644400,-0.098389,-0.749451,0.115723,0.965835,-0.316411,-0.141604,-35.739681,-119.929810,7.925536,,,,,,,,,,,,,,,,,,,,,,,,,,,,,,,,,,,,,,,,,,,,,,,,,,,,,,,,,,,,,,,,,,,,,,,,,,,,,,,,,,,,,,,,,,,,,,,,,,,,,
1606524535.080777,89.000000,0.000000,4218.205078,4211.538574,4212.563965,4212.563965,4219.230957,4188.205078,4183.846191,4217.307617,4216.025879,4216.282227,4242.692383,4230.641113,4246.282227,4226.922852,3226.000000,2.000000,,,,0.000000,4.000000,4.000000,4.000000,4.000000,4.000000,4.000000,4.000000,4.000000,4.000000,4.000000,4.000000,4.000000,4.000000,4.000000,100.000000,,,,,,,,,,,,,,,,,,,,,,,,,,,,,,,,,,,,,,,,,,,,,,,,,,,,,,,,,,,,,,,,,,,,,,,,,,,,,,,,,,,,,,,,,,,,,,,,,,,,,,,,,,,,,,,,,
1606524535.088472,90.000000,0.000000,4222.820313,4227.436035,4216.922852,4214.230957,4232.692383,4199.102539,4189.102539,4214.487305,4220.897461,4242.692383,4244.358887,4230.641113,4247.436035,4230.000000,3477.000000,2.000000,,,,0.000000,4.000000,4.000000,4.000000,4.000000,4.000000,4.000000,4.000000,4.000000,4.000000,4.000000,4.000000,4.000000,4.000000,4.000000,100.000000,,,,,,,,,,,,,,,,,,,,,,,,,,,,,,,,,,,,,,,,,,,,,,,,,,,,,,,,,,,,,,,,,,,,,,,,,,,,,,,,,,,,,,,,,,,,,,,,,,,,,,,,,,,,,,,,,
1606524535.096068,91.000000,0.000000,4226.153809,4233.077148,4218.461426,4221.666504,4241.794922,4196.538574,4189.871582,4220.897461,4221.153809,4237.948730,4248.974121,4235.384766,4255.000000,4234.487305,3532.000000,2.000000,,,,0.000000,4.000000,4.000000,4.000000,4.000000,4.000000,4.000000,4.000000,4.000000,4.000000,4.000000,4.000000,4.000000,4.000000,4.000000,100.000000,,,,,,,,,,,,,,,,,,,,,,,,,,,,,,,,,,,,,,,,,,,,,,,,,,,,,,,,,,,,,,,,,,,,,,,,,,,,,,,,,,,,,,,,,,,,,,,,,,,,,,,,,,,,,,,,,
1606524535.103764,92.000000,0.000000,4214.230957,4211.666504,4203.333496,4208.205078,4218.846191,4181.282227,4181.282227,4206.025879,4204.102539,4202.436035,4235.128418,4229.102539,4239.871582,4218.717773,3472.000000,2.000000,,,,0.000000,4.000000,4.000000,4.000000,4.000000,4.000000,4.000000,4.000000,4.000000,4.000000,4.000000,4.000000,4.000000,4.000000,4.000000,100.000000,23.000000,0.000000,0.644213,-0.097961,-0.749573,0.116333,0.974624,-0.311528,-0.147463,-37.683681,-119.182114,8.673228,,,,,,,,,,,,,,,,,,,,,,,,,,,,,,,,,,,,,,,,,,,,,,,,,,,,,,,,,,,,,,,,,,,,,,,,,,,,,,,,,,,,,,,,,,,,,,,,,,,,,
1606524535.111460,93.000000,0.000000,4213.589844,4205.256348,4203.077148,4194.487305,4209.102539,4185.897461,4183.589844,4194.743652,4200.256348,4198.589844,4229.102539,4226.153809,4233.846191,4212.051270,3226.000000,2.000000,,,,0.000000,4.000000,4.000000,4.000000,4.000000,4.000000,4.000000,4.000000,4.000000,4.000000,4.000000,4.000000,4.000000,4.000000,4.000000,100.000000,,,,,,,,,,,,,,,,,,,,,,,,,,,,,,,,,,,,,,,,,,,,,,,,,,,,,,,,,,,,,,,,,,,,,,,,,,,,,,,,,,,,,,,,,,,,,,,,,,,,,,,,,,,,,,,,,
1606524535.119156,94.000000,0.000000,4229.615234,4220.384766,4228.461426,4209.487305,4224.615234,4197.563965,4196.025879,4206.794922,4216.282227,4221.153809,4242.307617,4239.871582,4250.000000,4229.487305,3477.000000,2.000000,,,,0.000000,4.000000,4.000000,4.000000,4.000000,4.000000,4.000000,4.000000,4.000000,4.000000,4.000000,4.000000,4.000000,4.000000,4.000000,100.000000,,,,,,,,,,,,,,,,,,,,,,,,,,,,,,,,,,,,,,,,,,,,,,,,,,,,,,,,,,,,,,,,,,,,,,,,,,,,,,,,,,,,,,,,,,,,,,,,,,,,,,,,,,,,,,,,,
1606524535.127152,95.000000,0.000000,4231.794922,4217.692383,4231.922852,4218.077148,4225.384766,4192.051270,4192.948730,4207.692383,4210.897461,4223.589844,4238.205078,4241.922852,4244.871582,4235.256348,3532.000000,2.000000,,,,0.000000,4.000000,4.000000,4.000000,4.000000,4.000000,4.000000,4.000000,4.000000,4.000000,4.000000,4.000000,4.000000,4.000000,4.000000,100.000000,,,,,,,,,,,,,,,,,,,,,,,,,,,,,,,,,,,,,,,,,,,,4.472508,1.697738,0.668054,0.459357,0.496496,18.041151,5.601152,1.794315,1.579878,0.879430,1.801755,1.116139,0.848559,0.322918,0.413050,5.094026,1.959941,0.584545,0.718569,0.558799,0.904123,0.994778,0.471937,0.873769,0.993553,1.558652,0.518290,0.512049,0.231107,0.391184,4.415191,0.539504,0.863005,0.721972,0.546853,4.051214,1.763900,1.192330,0.883140,0.848999,3.403592,1.634242,1.126171,0.642170,0.758594,4.236876,5.367265,4.251195,1.731994,1.721846,4.278955,2.700928,1.008342,0.501920,0.755742,4.042747,1.217159,0.421883,0.363815,0.525970,7.152424,5.157553,1.461922,0.741179,0.780451,7.459849,2.552037,0.859704,0.655616,0.629859
1606524535.135047,96.000000,0.000000,4224.743652,4208.205078,4213.205078,4205.128418,4214.615234,4188.589844,4181.794922,4194.230957,4194.358887,4211.666504,4223.974121,4227.436035,4229.358887,4225.897461,3472.000000,2.000000,,,,0.000000,4.000000,4.000000,4.000000,4.000000,4.000000,4.000000,4.000000,4.000000,4.000000,4.000000,4.000000,4.000000,4.000000,4.000000,100.000000,24.000000,0.000000,0.643716,-0.096741,-0.749939,0.117737,0.968765,-0.330571,-0.146975,-37.085526,-117.836273,8.224613,,,,,,,,,,,,,,,,,,,,,,,,,,,,,,,,,,,,,,,,,,,,,,,,,,,,,,,,,,,,,,,,,,,,,,,,,,,,,,,,,,,,,,,,,,,,,,,,,,,,,
1606524535.142943,97.000000,0.000000,4231.025879,4220.641113,4221.922852,4211.153809,4218.461426,4199.615234,4188.717773,4197.051270,4208.333496,4220.512695,4237.436035,4233.461426,4242.692383,4233.077148,3226.000000,2.000000,,,,0.000000,4.000000,4.000000,4.000000,4.000000,4.000000,4.000000,4.000000,4.000000,4.000000,4.000000,4.000000,4.000000,4.000000,4.000000,100.000000,,,,,,,,,,,,,,,,,,,,,,,,,,,,,,,,,,,,,,,,,,,,,,,,,,,,,,,,,,,,,,,,,,,,,,,,,,,,,,,,,,,,,,,,,,,,,,,,,,,,,,,,,,,,,,,,,
1606524535.150739,98.000000,0.000000,4240.000000,4226.410156,4238.589844,4231.153809,4225.256348,4206.666504,4201.153809,4206.153809,4221.666504,4232.948730,4253.077148,4246.922852,4255.769043,4240.897461,3477.000000,2.000000,,,,0.000000,4.000000,4.000000,4.000000,4.000000,4.000000,4.000000,4.000000,4.000000,4.000000,4.000000,4.000000,4.000000,4.000000,4.000000,100.000000,,,,,,,,,,,,,,,,,,,,,,,,,,,,,,,,,,,,,,,,,,,,,,,,,,,,,,,,,,,,,,,,,,,,,,,,,,,,,,,,,,,,,,,,,,,,,,,,,,,,,,,,,,,,,,,,,
1606524535.158635,99.000000,0.000000,4228.717773,4206.794922,4223.077148,4218.717773,4214.230957,4199.487305,4197.436035,4197.051270,4202.051270,4222.051270,4233.846191,4228.077148,4234.358887,4220.000000,3532.000000,2.000000,,,,0.000000,4.000000,4.000000,4.000000,4.000000,4.000000,4.000000,4.000000,4.000000,4.000000,4.000000,4.000000,4.000000,4.000000,4.000000,100.000000,,,,,,,,,,,,,,,,,,,,,,,,,,,,,,,,,,,,,,,,,,,,,,,,,,,,,,,,,,,,,,,,,,,,,,,,,,,,,,,,,,,,,,,,,,,,,,,,,,,,,,,,,,,,,,,,,
1606524535.166530,100.000000,0.000000,4217.179688,4202.436035,4207.563965,4196.538574,4212.948730,4197.692383,4194.743652,4192.179688,4196.282227,4217.692383,4220.384766,4212.563965,4227.820313,4207.179688,3472.000000,2.000000,,,,0.000000,4.000000,4.000000,4.000000,4.000000,4.000000,4.000000,4.000000,4.000000,4.000000,4.000000,4.000000,4.000000,4.000000,4.000000,100.000000,25.000000,0.000000,0.643133,-0.095276,-0.750366,0.119385,0.956558,-0.325689,-0.144533,-37.384605,-118.733498,8.374151,,,,,,,,,,,,,,,,,,,,,,,,,,,,,,,,,,,,,,,,,,,,,,,,,,,,,,,,,,,,,,,,,,,,,,,,,,,,,,,,,,,,,,,,,,,,,,,,,,,,,
1606524535.174426,101.000000,0.000000,4232.948730,4226.794922,4220.769043,4210.641113,4239.487305,4210.641113,4209.487305,4209.743652,4221.410156,4233.589844,4247.179688,4234.743652,4258.717773,4232.948730,3226.000000,2.000000,,,,0.000000,4.000000,4.000000,4.000000,4.000000,4.000000,4.000000,4.000000,4.000000,4.000000,4.000000,4.000000,4.000000,4.000000,4.000000,100.000000,,,,,,,,,,,,,,,,,,,,,,,,,,,,,,,,,,,,,,,,,,,,,,,,,,,,,,,,,,,,,,,,,,,,,,,,,,,,,,,,,,,,,,,,,,,,,,,,,,,,,,,,,,,,,,,,,
1606524535.182322,102.000000,0.000000,4239.102539,4224.743652,4222.436035,4221.794922,4234.102539,4206.538574,4210.641113,4209.102539,4222.692383,4234.102539,4252.307617,4238.846191,4258.589844,4240.897461,3477.000000,2.000000,,,,0.000000,4.000000,4.000000,4.000000,4.000000,4.000000,4.000000,4.000000,4.000000,4.000000,4.000000,4.000000,4.000000,4.000000,4.000000,100.000000,,,,,,,,,,,,,,,,,,,,,,,,,,,,,,,,,,,,,,,,,,,,,,,,,,,,,,,,,,,,,,,,,,,,,,,,,,,,,,,,,,,,,,,,,,,,,,,,,,,,,,,,,,,,,,,,,
1606524535.190118,103.000000,0.000000,4223.077148,4198.333496,4204.358887,4202.307617,4196.666504,4188.205078,4196.025879,4188.077148,4197.307617,4225.769043,4222.179688,4209.871582,4228.205078,4215.384766,3532.000000,2.000000,,,,0.000000,4.000000,4.000000,4.000000,4.000000,4.000000,4.000000,4.000000,4.000000,4.000000,4.000000,4.000000,4.000000,4.000000,4.000000,100.000000,,,,,,,,,,,,,,,,,,,,,,,,,,,,,,,,,,,,,,,,,,,,,,,,,,,,,,,,,,,,,,,,,,,,,,,,,,,,,,,,,,,,,,,,,,,,,,,,,,,,,,,,,,,,,,,,,
1606524535.197814,104.000000,0.000000,4233.461426,4208.846191,4212.307617,4205.256348,4209.615234,4195.384766,4203.461426,4198.205078,4195.897461,4228.974121,4226.410156,4211.538574,4237.307617,4219.743652,3472.000000,2.000000,,,,0.000000,4.000000,4.000000,4.000000,4.000000,4.000000,4.000000,4.000000,4.000000,4.000000,4.000000,4.000000,4.000000,4.000000,4.000000,100.000000,26.000000,0.000000,0.642682,-0.094299,-0.750671,0.120667,0.963394,-0.324712,-0.157229,-36.935989,-117.985809,6.878767,,,,,,,,,,,,,,,,,,,,,,,,,,,,,,,,,,,,,,,,,,,,,,,,,,,,,,,,,,,,,,,,,,,,,,,,,,,,,,,,,,,,,,,,,,,,,,,,,,,,,
1606524535.205509,105.000000,0.000000,4256.538574,4238.333496,4236.282227,4233.461426,4248.974121,4216.282227,4217.820313,4222.692383,4209.230957,4219.358887,4255.000000,4236.538574,4264.102539,4248.205078,3226.000000,2.000000,,,,0.000000,4.000000,4.000000,4.000000,4.000000,4.000000,4.000000,4.000000,4.000000,4.000000,4.000000,4.000000,4.000000,4.000000,4.000000,100.000000,,,,,,,,,,,,,,,,,,,,,,,,,,,,,,,,,,,,,,,,,,,,,,,,,,,,,,,,,,,,,,,,,,,,,,,,,,,,,,,,,,,,,,,,,,,,,,,,,,,,,,,,,,,,,,,,,
1606524535.213205,106.000000,0.000000,4252.179688,4239.358887,4235.769043,4234.358887,4239.487305,4216.538574,4210.641113,4217.307617,4205.256348,4222.179688,4254.102539,4235.641113,4262.179688,4251.025879,3477.000000,2.000000,,,,0.000000,4.000000,4.000000,4.000000,4.000000,4.000000,4.000000,4.000000,4.000000,4.000000,4.000000,4.000000,4.000000,4.000000,4.000000,100.000000,,,,,,,,,,,,,,,,,,,,,,,,,,,,,,,,,,,,,,,,,,,,,,,,,,,,,,,,,,,,,,,,,,,,,,,,,,,,,,,,,,,,,,,,,,,,,,,,,,,,,,,,,,,,,,,,,
1606524535.221001,107.000000,0.000000,4245.384766,4230.897461,4228.077148,4229.743652,4221.153809,4209.871582,4210.000000,4210.897461,4207.692383,4256.025879,4244.871582,4229.102539,4259.102539,4242.307617,3532.000000,2.000000,,,,0.000000,4.000000,4.000000,4.000000,4.000000,4.000000,4.000000,4.000000,4.000000,4.000000,4.000000,4.000000,4.000000,4.000000,4.000000,100.000000,,,,,,,,,,,,,,,,,,,,,,,,,,,,,,,,,,,,,,,,,,,,,,,,,,,,,,,,,,,,,,,,,,,,,,,,,,,,,,,,,,,,,,,,,,,,,,,,,,,,,,,,,,,,,,,,,
1606524535.228897,108.000000,0.000000,4247.820313,4228.717773,4233.461426,4236.922852,4230.000000,4206.922852,4220.384766,4218.717773,4221.538574,4265.128418,4248.077148,4233.974121,4259.230957,4240.641113,3472.000000,2.000000,,,,0.000000,4.000000,4.000000,4.000000,4.000000,4.000000,4.000000,4.000000,4.000000,4.000000,4.000000,4.000000,4.000000,4.000000,4.000000,100.000000,27.000000,0.000000,0.642452,-0.093872,-0.750793,0.121460,0.963394,-0.336431,-0.156741,-36.935989,-120.677498,5.682460,,,,,,,,,,,,,,,,,,,,,,,,,,,,,,,,,,,,,,,,,,,,,,,,,,,,,,,,,,,,,,,,,,,,,,,,,,,,,,,,,,,,,,,,,,,,,,,,,,,,,
1606524535.236793,109.000000,0.000000,4241.153809,4220.769043,4233.717773,4226.794922,4223.205078,4201.410156,4208.589844,4210.384766,4214.743652,4230.512695,4244.871582,4232.051270,4247.179688,4233.461426,3226.000000,2.000000,,,,0.000000,4.000000,4.000000,4.000000,4.000000,4.000000,4.000000,4.000000,4.000000,4.000000,4.000000,4.000000,4.000000,4.000000,4.000000,100.000000,,,,,,,,,,,,,,,,,,,,,,,,,,,,,,,,,,,,,,,,,,,,,,,,,,,,,,,,,,,,,,,,,,,,,,,,,,,,,,,,,,,,,,,,,,,,,,,,,,,,,,,,,,,,,,,,,
1606524535.244688,110.000000,0.000000,4239.615234,4214.871582,4230.256348,4217.820313,4210.384766,4204.487305,4198.205078,4198.846191,4194.743652,4202.179688,4243.589844,4226.153809,4245.256348,4230.256348,3477.000000,2.000000,,,,0.000000,4.000000,4.000000,4.000000,4.000000,4.000000,4.000000,4.000000,4.000000,4.000000,4.000000,4.000000,4.000000,4.000000,4.000000,100.000000,,,,,,,,,,,,,,,,,,,,,,,,,,,,,,,,,,,,,,,,,,,,,,,,,,,,,,,,,,,,,,,,,,,,,,,,,,,,,,,,,,,,,,,,,,,,,,,,,,,,,,,,,,,,,,,,,
1606524535.252684,111.000000,0.000000,4253.846191,4221.922852,4238.333496,4233.077148,4225.384766,4216.538574,4220.512695,4209.358887,4199.230957,4219.102539,4248.077148,4233.589844,4254.358887,4238.205078,3532.000000,2.000000,,,,0.000000,4.000000,4.000000,4.000000,4.000000,4.000000,4.000000,4.000000,4.000000,4.000000,4.000000,4.000000,4.000000,4.000000,4.000000,100.000000,,,,,,,,,,,,,,,,,,,,,,,,,,,,,,,,,,,,,,,,,,,,7.173323,2.518169,0.727338,0.465657,0.455094,23.223875,7.858305,1.902132,1.526763,0.913570,2.230908,1.268041,0.864933,0.350169,0.390842,5.781347,2.323694,0.761349,0.700237,0.502366,0.969523,1.100226,0.448202,0.902141,0.879325,1.360479,0.475304,0.503616,0.251279,0.358093,3.553805,0.463258,0.958139,0.742304,0.510937,4.987918,1.970863,1.219064,0.980495,0.792217,4.787132,1.916751,1.180628,0.713300,0.716823,5.238459,5.379991,3.188084,1.787393,1.587574,5.454874,2.737665,0.857299,0.464113,0.703369,5.327621,1.462862,0.455758,0.364677,0.469029,10.053583,6.012978,1.544479,0.627775,0.749206,12.184379,3.726621,0.947452,0.661610,0.566420
1606524535.260580,112.000000,0.000000,4251.153809,4223.205078,4241.025879,4237.051270,4229.871582,4215.256348,4235.641113,4213.717773,4208.846191,4233.974121,4238.846191,4236.025879,4248.974121,4233.589844,3472.000000,2.000000,,,,0.000000,4.000000,4.000000,4.000000,4.000000,4.000000,4.000000,4.000000,4.000000,4.000000,4.000000,4.000000,4.000000,4.000000,4.000000,100.000000,28.000000,0.000000,0.641972,-0.092712,-0.751160,0.122620,0.951675,-0.348150,-0.165530,-37.534142,-119.032578,8.523689,,,,,,,,,,,,,,,,,,,,,,,,,,,,,,,,,,,,,,,,,,,,,,,,,,,,,,,,,,,,,,,,,,,,,,,,,,,,,,,,,,,,,,,,,,,,,,,,,,,,,
1606524535.268475,113.000000,0.000000,4236.922852,4210.897461,4232.179688,4219.358887,4204.487305,4208.077148,4223.077148,4200.512695,4197.436035,4201.153809,4226.538574,4222.051270,4231.794922,4216.666504,3226.000000,2.000000,,,,0.000000,4.000000,4.000000,4.000000,4.000000,4.000000,4.000000,4.000000,4.000000,4.000000,4.000000,4.000000,4.000000,4.000000,4.000000,100.000000,,,,,,,,,,,,,,,,,,,,,,,,,,,,,,,,,,,,,,,,,,,,,,,,,,,,,,,,,,,,,,,,,,,,,,,,,,,,,,,,,,,,,,,,,,,,,,,,,,,,,,,,,,,,,,,,,
1606524535.276371,114.000000,0.000000,4238.717773,4201.922852,4227.820313,4211.153809,4192.692383,4208.717773,4210.128418,4202.820313,4199.871582,4198.589844,4227.820313,4217.820313,4226.282227,4211.282227,3477.000000,2.000000,,,,0.000000,4.000000,4.000000,4.000000,4.000000,4.000000,4.000000,4.000000,4.000000,4.000000,4.000000,4.000000,4.000000,4.000000,4.000000,100.000000,,,,,,,,,,,,,,,,,,,,,,,,,,,,,,,,,,,,,,,,,,,,,,,,,,,,,,,,,,,,,,,,,,,,,,,,,,,,,,,,,,,,,,,,,,,,,,,,,,,,,,,,,,,,,,,,,
1606524535.284267,115.000000,0.000000,4251.538574,4209.487305,4234.615234,4220.641113,4211.666504,4208.205078,4215.256348,4223.717773,4224.871582,4255.512695,4236.282227,4233.974121,4244.743652,4226.538574,3532.000000,2.000000,,,,0.000000,4.000000,4.000000,4.000000,4.000000,4.000000,4.000000,4.000000,4.000000,4.000000,4.000000,4.000000,4.000000,4.000000,4.000000,100.000000,,,,,,,,,,,,,,,,,,,,,,,,,,,,,,,,,,,,,,,,,,,,,,,,,,,,,,,,,,,,,,,,,,,,,,,,,,,,,,,,,,,,,,,,,,,,,,,,,,,,,,,,,,,,,,,,,
1606524535.291963,116.000000,0.000000,4252.948730,4209.871582,4234.871582,4216.410156,4215.641113,4202.820313,4214.102539,4217.436035,4218.974121,4247.948730,4235.512695,4237.307617,4249.487305,4230.384766,3472.000000,2.000000,,,,0.000000,4.000000,4.000000,4.000000,4.000000,4.000000,4.000000,4.000000,4.000000,4.000000,4.000000,4.000000,4.000000,4.000000,4.000000,100.000000,29.000000,0.000000,0.641895,-0.092346,-0.751221,0.122925,0.964370,-0.341314,-0.144045,-34.842449,-119.182114,6.878767,,,,,,,,,,,,,,,,,,,,,,,,,,,,,,,,,,,,,,,,,,,,,,,,,,,,,,,,,,,,,,,,,,,,,,,,,,,,,,,,,,,,,,,,,,,,,,,,,,,,,
1606524535.299659,117.000000,0.000000,4243.461426,4195.384766,4226.025879,4197.563965,4198.077148,4200.641113,4202.051270,4197.179688,4193.205078,4194.487305,4228.589844,4224.487305,4231.025879,4215.128418,3226.000000,2.000000,,,,0.000000,4.000000,4.000000,4.000000,4.000000,4.000000,4.000000,4.000000,4.000000,4.000000,4.000000,4.000000,4.000000,4.000000,4.000000,100.000000,,,,,,,,,,,,,,,,,,,,,,,,,,,,,,,,,,,,,,,,,,,,,,,,,,,,,,,,,,,,,,,,,,,,,,,,,,,,,,,,,,,,,,,,,,,,,,,,,,,,,,,,,,,,,,,,,
1606524535.307354,118.000000,0.000000,4249.487305,4204.615234,4230.769043,4204.487305,4200.256348,4204.358887,4209.743652,4210.000000,4205.641113,4216.666504,4235.384766,4232.820313,4237.307617,4222.948730,3477.000000,2.000000,,,,0.000000,4.000000,4.000000,4.000000,4.000000,4.000000,4.000000,4.000000,4.000000,4.000000,4.000000,4.000000,4.000000,4.000000,4.000000,100.000000,,,,,,,,,,,,,,,,,,,,,,,,,,,,,,,,,,,,,,,,,,,,,,,,,,,,,,,,,,,,,,,,,,,,,,,,,,,,,,,,,,,,,,,,,,,,,,,,,,,,,,,,,,,,,,,,,
1606524535.315150,119.000000,0.000000,4254.487305,4218.589844,4233.589844,4224.615234,4201.538574,4204.358887,4217.179688,4221.794922,4221.282227,4243.461426,4238.717773,4239.487305,4248.846191,4236.025879,3532.000000,2.000000,,,,0.000000,4.000000,4.000000,4.000000,4.000000,4.000000,4.000000,4.000000,4.000000,4.000000,4.000000,4.000000,4.000000,4.000000,4.000000,100.000000,,,,,,,,,,,,,,,,,,,,,,,,,,,,,,,,,,,,,,,,,,,,,,,,,,,,,,,,,,,,,,,,,,,,,,,,,,,,,,,,,,,,,,,,,,,,,,,,,,,,,,,,,,,,,,,,,
1606524535.322846,120.000000,0.000000,4240.769043,4209.358887,4219.871582,4216.538574,4188.333496,4201.794922,4206.153809,4210.641113,4206.153809,4216.538574,4224.102539,4225.641113,4234.230957,4223.333496,3472.000000,2.000000,,,,0.000000,4.000000,4.000000,4.000000,4.000000,4.000000,4.000000,4.000000,4.000000,4.000000,4.000000,4.000000,4.000000,4.000000,4.000000,100.000000,30.000000,0.000000,0.641829,-0.092224,-0.751282,0.122986,0.969253,-0.327153,-0.169924,-36.337833,-119.032578,8.972305,,,,,,,,,,,,,,,,,,,,,,,,,,,,,,,,,,,,,,,,,,,,,,,,,,,,,,,,,,,,,,,,,,,,,,,,,,,,,,,,,,,,,,,,,,,,,,,,,,,,,
1606524535.330542,121.000000,0.000000,4230.256348,4200.641113,4212.436035,4198.333496,4186.794922,4200.897461,4198.461426,4211.922852,4201.538574,4209.743652,4215.769043,4222.051270,4228.333496,4212.692383,3226.000000,2.000000,,,,0.000000,4.000000,4.000000,4.000000,4.000000,4.000000,4.000000,4.000000,4.000000,4.000000,4.000000,4.000000,4.000000,4.000000,4.000000,100.000000,,,,,,,,,,,,,,,,,,,,,,,,,,,,,,,,,,,,,,,,,,,,,,,,,,,,,,,,,,,,,,,,,,,,,,,,,,,,,,,,,,,,,,,,,,,,,,,,,,,,,,,,,,,,,,,,,
1606524535.338238,122.000000,0.000000,4230.512695,4195.512695,4213.974121,4195.641113,4186.794922,4198.846191,4199.487305,4218.589844,4204.871582,4207.436035,4214.615234,4222.692383,4230.128418,4214.615234,3477.000000,2.000000,,,,0.000000,4.000000,4.000000,4.000000,4.000000,4.000000,4.000000,4.000000,4.000000,4.000000,4.000000,4.000000,4.000000,4.000000,4.000000,100.000000,,,,,,,,,,,,,,,,,,,,,,,,,,,,,,,,,,,,,,,,,,,,,,,,,,,,,,,,,,,,,,,,,,,,,,,,,,,,,,,,,,,,,,,,,,,,,,,,,,,,,,,,,,,,,,,,,
1606524535.346034,123.000000,0.000000,4233.205078,4191.153809,4214.230957,4201.538574,4185.769043,4198.846191,4208.205078,4216.153809,4200.512695,4190.000000,4211.410156,4217.051270,4218.846191,4214.615234,3532.000000,2.000000,,,,0.000000,4.000000,4.000000,4.000000,4.000000,4.000000,4.000000,4.000000,4.000000,4.000000,4.000000,4.000000,4.000000,4.000000,4.000000,100.000000,,,,,,,,,,,,,,,,,,,,,,,,,,,,,,,,,,,,,,,,,,,,,,,,,,,,,,,,,,,,,,,,,,,,,,,,,,,,,,,,,,,,,,,,,,,,,,,,,,,,,,,,,,,,,,,,,
1606524535.353730,124.000000,0.000000,4231.538574,4192.179688,4217.948730,4200.897461,4199.102539,4202.563965,4215.512695,4218.205078,4206.410156,4204.871582,4211.282227,4217.563965,4216.282227,4214.615234,3472.000000,2.000000,,,,0.000000,4.000000,4.000000,4.000000,4.000000,4.000000,4.000000,4.000000,4.000000,4.000000,4.000000,4.000000,4.000000,4.000000,4.000000,100.000000,31.000000,0.000000,0.641790,-0.091919,-0.751343,0.123047,0.955581,-0.317876,-0.157717,-36.337833,-118.583961,7.327382,,,,,,,,,,,,,,,,,,,,,,,,,,,,,,,,,,,,,,,,,,,,,,,,,,,,,,,,,,,,,,,,,,,,,,,,,,,,,,,,,,,,,,,,,,,,,,,,,,,,,
1606524535.361426,125.000000,0.000000,4222.692383,4192.692383,4207.820313,4192.307617,4203.205078,4204.487305,4204.487305,4210.384766,4207.692383,4220.256348,4207.436035,4212.179688,4217.179688,4208.589844,3226.000000,2.000000,,,,0.000000,4.000000,4.000000,4.000000,4.000000,4.000000,4.000000,4.000000,4.000000,4.000000,4.000000,4.000000,4.000000,4.000000,4.000000,100.000000,,,,,,,,,,,,,,,,,,,,,,,,,,,,,,,,,,,,,,,,,,,,,,,,,,,,,,,,,,,,,,,,,,,,,,,,,,,,,,,,,,,,,,,,,,,,,,,,,,,,,,,,,,,,,,,,,
1606524535.369122,126.000000,0.000000,4208.717773,4191.922852,4183.461426,4185.000000,4185.897461,4196.153809,4185.128418,4185.128418,4187.820313,4197.563965,4192.436035,4191.153809,4199.743652,4192.692383,3477.000000,2.000000,,,,0.000000,4.000000,4.000000,4.000000,4.000000,4.000000,4.000000,4.000000,4.000000,4.000000,4.000000,4.000000,4.000000,4.000000,4.000000,100.000000,,,,,,,,,,,,,,,,,,,,,,,,,,,,,,,,,,,,,,,,,,,,,,,,,,,,,,,,,,,,,,,,,,,,,,,,,,,,,,,,,,,,,,,,,,,,,,,,,,,,,,,,,,,,,,,,,
1606524535.377118,127.000000,0.000000,4208.717773,4199.230957,4184.102539,4193.589844,4186.922852,4188.974121,4185.128418,4184.358887,4182.948730,4194.358887,4193.974121,4190.384766,4195.769043,4194.358887,51.000000,2.000000,,,,0.000000,4.000000,4.000000,4.000000,4.000000,4.000000,4.000000,4.000000,4.000000,4.000000,4.000000,4.000000,4.000000,4.000000,4.000000,100.000000,,,,,,,,,,,,,,,,,,,,,,,,,,,,,,,,,,,,,,,,,,,,10.009069,3.337369,0.807809,0.469926,0.401623,27.963409,10.137141,2.036018,1.344053,0.927458,2.824362,1.448049,0.888380,0.379505,0.371275,6.266698,2.676250,0.938674,0.656561,0.451306,1.050948,1.156508,0.463842,0.910485,0.750093,1.129563,0.449631,0.524295,0.278831,0.319608,2.600555,0.442643,1.103827,0.756471,0.454376,5.554713,2.105707,1.297931,1.021513,0.709473,5.857021,2.088524,1.268744,0.754921,0.653989,5.974850,5.218951,2.371152,1.895327,1.530150,6.423256,2.630003,0.678449,0.435318,0.644096,6.638660,1.638503,0.508716,0.373178,0.408140,12.930632,6.463730,1.538501,0.539711,0.722557,17.254034,4.905864,1.069776,0.672295,0.500128
1606524535.385013,0.000000,0.000000,4218.717773,4202.436035,4202.307617,4204.615234,4195.769043,4193.846191,4194.743652,4201.153809,4197.307617,4209.102539,4213.974121,4205.384766,4210.256348,4205.000000,3358.000000,2.000000,,,,0.000000,4.000000,4.000000,4.000000,4.000000,4.000000,4.000000,4.000000,4.000000,4.000000,4.000000,4.000000,4.000000,4.000000,4.000000,100.000000,0.000000,0.000000,0.641846,-0.091858,-0.751343,0.122803,0.953140,-0.333989,-0.166018,-36.337833,-118.583961,8.523689,,,,,,,,,,,,,,,,,,,,,,,,,,,,,,,,,,,,,,,,,,,,,,,,,,,,,,,,,,,,,,,,,,,,,,,,,,,,,,,,,,,,,,,,,,,,,,,,,,,,,
1606524535.392909,1.000000,0.000000,4217.563965,4199.358887,4208.717773,4201.153809,4185.512695,4199.102539,4196.666504,4202.436035,4201.153809,4192.051270,4218.205078,4204.358887,4213.717773,4198.589844,3556.000000,2.000000,,,,0.000000,4.000000,4.000000,4.000000,4.000000,4.000000,4.000000,4.000000,4.000000,4.000000,4.000000,4.000000,4.000000,4.000000,4.000000,100.000000,,,,,,,,,,,,,,,,,,,,,,,,,,,,,,,,,,,,,,,,,,,,,,,,,,,,,,,,,,,,,,,,,,,,,,,,,,,,,,,,,,,,,,,,,,,,,,,,,,,,,,,,,,,,,,,,,
1606524535.400805,2.000000,0.000000,4213.846191,4198.974121,4210.256348,4200.769043,4188.461426,4197.179688,4198.974121,4201.666504,4197.948730,4189.743652,4215.000000,4204.487305,4214.358887,4193.717773,3264.000000,2.000000,,,,0.000000,4.000000,4.000000,4.000000,4.000000,4.000000,4.000000,4.000000,4.000000,4.000000,4.000000,4.000000,4.000000,4.000000,4.000000,100.000000,,,,,,,,,,,,,,,,,,,,,,,,,,,,,,,,,,,,,,,,,,,,,,,,,,,,,,,,,,,,,,,,,,,,,,,,,,,,,,,,,,,,,,,,,,,,,,,,,,,,,,,,,,,,,,,,,
1606524535.408800,3.000000,0.000000,4221.410156,4202.307617,4217.436035,4214.358887,4210.769043,4200.384766,4209.871582,4212.692383,4201.153809,4224.230957,4225.769043,4217.820313,4222.692383,4208.333496,3581.000000,2.000000,,,,0.000000,4.000000,4.000000,4.000000,4.000000,4.000000,4.000000,4.000000,4.000000,4.000000,4.000000,4.000000,4.000000,4.000000,4.000000,100.000000,,,,,,,,,,,,,,,,,,,,,,,,,,,,,,,,,,,,,,,,,,,,,,,,,,,,,,,,,,,,,,,,,,,,,,,,,,,,,,,,,,,,,,,,,,,,,,,,,,,,,,,,,,,,,,,,,
1606524535.416696,4.000000,0.000000,4230.256348,4213.333496,4224.743652,4221.538574,4214.358887,4205.128418,4216.794922,4217.436035,4207.436035,4238.077148,4240.128418,4224.230957,4226.922852,4219.230957,3576.000000,2.000000,,,,0.000000,4.000000,4.000000,4.000000,4.000000,4.000000,4.000000,4.000000,4.000000,4.000000,4.000000,4.000000,4.000000,4.000000,4.000000,100.000000,1.000000,0.000000,0.642086,-0.092407,-0.751160,0.122253,0.968277,-0.309575,-0.158694,-36.487373,-118.434425,7.626459,,,,,,,,,,,,,,,,,,,,,,,,,,,,,,,,,,,,,,,,,,,,,,,,,,,,,,,,,,,,,,,,,,,,,,,,,,,,,,,,,,,,,,,,,,,,,,,,,,,,,
1606524535.424392,5.000000,0.000000,4217.692383,4206.666504,4217.051270,4205.512695,4189.487305,4193.974121,4202.563965,4207.692383,4202.436035,4212.051270,4231.025879,4210.641113,4218.461426,4202.820313,2625.000000,2.000000,,,,0.000000,4.000000,4.000000,4.000000,4.000000,4.000000,4.000000,4.000000,4.000000,4.000000,4.000000,4.000000,4.000000,4.000000,4.000000,100.000000,,,,,,,,,,,,,,,,,,,,,,,,,,,,,,,,,,,,,,,,,,,,,,,,,,,,,,,,,,,,,,,,,,,,,,,,,,,,,,,,,,,,,,,,,,,,,,,,,,,,,,,,,,,,,,,,,
1606524535.432088,6.000000,0.000000,4205.000000,4192.051270,4205.000000,4197.563965,4176.666504,4183.717773,4186.922852,4193.461426,4184.743652,4183.333496,4211.922852,4196.794922,4210.641113,4189.358887,3214.000000,2.000000,,,,0.000000,4.000000,4.000000,4.000000,4.000000,4.000000,4.000000,4.000000,4.000000,4.000000,4.000000,4.000000,4.000000,4.000000,4.000000,100.000000,,,,,,,,,,,,,,,,,,,,,,,,,,,,,,,,,,,,,,,,,,,,,,,,,,,,,,,,,,,,,,,,,,,,,,,,,,,,,,,,,,,,,,,,,,,,,,,,,,,,,,,,,,,,,,,,,
1606524535.440084,7.000000,0.000000,4220.384766,4200.384766,4210.897461,4215.256348,4192.692383,4193.461426,4199.358887,4196.282227,4184.230957,4187.436035,4219.102539,4205.128418,4217.179688,4205.641113,3377.000000,2.000000,,,,0.000000,4.000000,4.000000,4.000000,4.000000,4.000000,4.000000,4.000000,4.000000,4.000000,4.000000,4.000000,4.000000,4.000000,4.000000,100.000000,,,,,,,,,,,,,,,,,,,,,,,,,,,,,,,,,,,,,,,,,,,,,,,,,,,,,,,,,,,,,,,,,,,,,,,,,,,,,,,,,,,,,,,,,,,,,,,,,,,,,,,,,,,,,,,,,
1606524535.447979,8.000000,0.000000,4234.743652,4203.205078,4223.205078,4221.666504,4203.589844,4204.871582,4216.153809,4215.000000,4206.025879,4207.948730,4237.692383,4221.025879,4224.615234,4222.563965,3321.000000,2.000000,,,,0.000000,4.000000,4.000000,4.000000,4.000000,4.000000,4.000000,4.000000,4.000000,4.000000,4.000000,4.000000,4.000000,4.000000,4.000000,100.000000,2.000000,0.000000,0.642056,-0.092773,-0.751160,0.122131,0.964370,-0.321294,-0.162600,-36.487373,-120.228882,6.878767,,,,,,,,,,,,,,,,,,,,,,,,,,,,,,,,,,,,,,,,,,,,,,,,,,,,,,,,,,,,,,,,,,,,,,,,,,,,,,,,,,,,,,,,,,,,,,,,,,,,,
1606524535.455675,9.000000,0.000000,4226.922852,4193.589844,4223.077148,4213.717773,4201.922852,4201.666504,4209.871582,4209.871582,4205.769043,4205.512695,4235.256348,4217.436035,4216.922852,4215.641113,3628.000000,2.000000,,,,0.000000,4.000000,4.000000,4.000000,4.000000,4.000000,4.000000,4.000000,4.000000,4.000000,4.000000,4.000000,4.000000,4.000000,4.000000,100.000000,,,,,,,,,,,,,,,,,,,,,,,,,,,,,,,,,,,,,,,,,,,,,,,,,,,,,,,,,,,,,,,,,,,,,,,,,,,,,,,,,,,,,,,,,,,,,,,,,,,,,,,,,,,,,,,,,
1606524535.463371,10.000000,0.000000,4214.743652,4200.000000,4214.743652,4219.230957,4207.436035,4199.230957,4198.589844,4184.230957,4182.436035,4192.692383,4216.025879,4202.948730,4201.410156,4200.769043,3491.000000,2.000000,,,,0.000000,4.000000,4.000000,4.000000,4.000000,4.000000,4.000000,4.000000,4.000000,4.000000,4.000000,4.000000,4.000000,4.000000,4.000000,100.000000,,,,,,,,,,,,,,,,,,,,,,,,,,,,,,,,,,,,,,,,,,,,,,,,,,,,,,,,,,,,,,,,,,,,,,,,,,,,,,,,,,,,,,,,,,,,,,,,,,,,,,,,,,,,,,,,,
1606524535.471167,11.000000,0.000000,4206.538574,4203.717773,4207.948730,4224.871582,4219.615234,4204.230957,4196.922852,4177.692383,4182.948730,4204.230957,4207.307617,4198.717773,4190.256348,4192.051270,3548.000000,2.000000,,,,0.000000,4.000000,4.000000,4.000000,4.000000,4.000000,4.000000,4.000000,4.000000,4.000000,4.000000,4.000000,4.000000,4.000000,4.000000,100.000000,,,,,,,,,,,,,,,,,,,,,,,,,,,,,,,,,,,,,,,,,,,,,,,,,,,,,,,,,,,,,,,,,,,,,,,,,,,,,,,,,,,,,,,,,,,,,,,,,,,,,,,,,,,,,,,,,
1606524535.479063,12.000000,0.000000,4190.641113,4179.487305,4195.897461,4205.897461,4215.769043,4199.230957,4190.769043,4175.512695,4190.384766,4197.563965,4199.358887,4191.410156,4170.256348,4175.769043,3485.000000,2.000000,,,,0.000000,4.000000,4.000000,4.000000,4.000000,4.000000,4.000000,4.000000,4.000000,4.000000,4.000000,4.000000,4.000000,4.000000,4.000000,100.000000,3.000000,0.000000,0.641568,-0.091736,-0.751465,0.123596,0.948745,-0.326665,-0.158206,-37.384605,-119.481194,8.673228,,,,,,,,,,,,,,,,,,,,,,,,,,,,,,,,,,,,,,,,,,,,,,,,,,,,,,,,,,,,,,,,,,,,,,,,,,,,,,,,,,,,,,,,,,,,,,,,,,,,,
1606524535.486958,13.000000,0.000000,4180.641113,4164.615234,4187.436035,4195.384766,4212.179688,4197.051270,4187.563965,4166.666504,4180.897461,4171.538574,4186.666504,4182.563965,4150.256348,4159.743652,3239.000000,2.000000,,,,0.000000,4.000000,4.000000,4.000000,4.000000,4.000000,4.000000,4.000000,4.000000,4.000000,4.000000,4.000000,4.000000,4.000000,4.000000,100.000000,,,,,,,,,,,,,,,,,,,,,,,,,,,,,,,,,,,,,,,,,,,,,,,,,,,,,,,,,,,,,,,,,,,,,,,,,,,,,,,,,,,,,,,,,,,,,,,,,,,,,,,,,,,,,,,,,
1606524535.494854,14.000000,0.000000,4183.205078,4170.000000,4193.461426,4209.487305,4227.820313,4208.846191,4201.153809,4186.666504,4188.077148,4184.615234,4187.307617,4185.897461,4148.717773,4160.128418,3491.000000,2.000000,,,,0.000000,4.000000,4.000000,4.000000,4.000000,4.000000,4.000000,4.000000,4.000000,4.000000,4.000000,4.000000,4.000000,4.000000,4.000000,100.000000,,,,,,,,,,,,,,,,,,,,,,,,,,,,,,,,,,,,,,,,,,,,,,,,,,,,,,,,,,,,,,,,,,,,,,,,,,,,,,,,,,,,,,,,,,,,,,,,,,,,,,,,,,,,,,,,,
1606524535.502650,15.000000,0.000000,4177.692383,4170.128418,4191.794922,4208.205078,4237.307617,4211.794922,4201.410156,4206.922852,4202.948730,4198.589844,4186.666504,4183.589844,4147.563965,4161.025879,3548.000000,2.000000,,,,0.000000,4.000000,4.000000,4.000000,4.000000,4.000000,4.000000,4.000000,4.000000,4.000000,4.000000,4.000000,4.000000,4.000000,4.000000,100.000000,,,,,,,,,,,,,,,,,,,,,,,,,,,,,,,,,,,,,,,,,,,,12.018594,3.913123,0.876866,0.468151,0.350152,30.813274,11.704466,2.103403,1.091534,0.924599,3.356245,1.629020,0.922157,0.401959,0.360824,6.439781,2.906061,1.053336,0.596156,0.412433,1.178727,1.140980,0.506452,0.914086,0.647449,0.924214,0.429774,0.569097,0.310901,0.285561,1.798491,0.447751,1.228158,0.750024,0.393856,5.607435,2.111604,1.430268,0.993012,0.620617,6.283180,2.081965,1.378255,0.747363,0.589896,6.257344,4.840496,1.992469,2.015444,1.569164,6.890446,2.363105,0.518844,0.410543,0.597596,7.584760,1.693471,0.562673,0.381648,0.359818,14.858773,6.337699,1.433239,0.486949,0.713558,20.989965,5.707151,1.159776,0.676256,0.453333
1606524535.510346,16.000000,0.000000,4165.769043,4166.410156,4174.358887,4194.230957,4230.769043,4199.358887,4183.077148,4180.128418,4188.589844,4182.307617,4173.589844,4169.615234,4137.948730,4151.410156,0.000000,2.000000,,,,0.000000,4.000000,4.000000,4.000000,4.000000,4.000000,4.000000,4.000000,4.000000,4.000000,4.000000,4.000000,4.000000,4.000000,4.000000,100.000000,4.000000,0.000000,0.641255,-0.091187,-0.751587,0.124878,0.967300,-0.326177,-0.163577,-37.085526,-119.331657,7.327382,,,,,,,,,,,,,,,,,,,,,,,,,,,,,,,,,,,,,,,,,,,,,,,,,,,,,,,,,,,,,,,,,,,,,,,,,,,,,,,,,,,,,,,,,,,,,,,,,,,,,
1606524535.518042,17.000000,0.000000,4164.487305,4165.000000,4165.641113,4198.461426,4228.974121,4195.256348,4179.358887,4161.153809,4176.794922,4175.897461,4166.282227,4161.282227,4135.128418,4142.179688,0.000000,2.000000,,,,0.000000,4.000000,4.000000,4.000000,4.000000,4.000000,4.000000,4.000000,4.000000,4.000000,4.000000,4.000000,4.000000,4.000000,4.000000,100.000000,,,,,,,,,,,,,,,,,,,,,,,,,,,,,,,,,,,,,,,,,,,,,,,,,,,,,,,,,,,,,,,,,,,,,,,,,,,,,,,,,,,,,,,,,,,,,,,,,,,,,,,,,,,,,,,,,
1606524535.525738,18.000000,0.000000,4166.922852,4164.871582,4173.461426,4204.358887,4230.897461,4199.487305,4183.846191,4178.077148,4193.077148,4186.153809,4170.641113,4161.410156,4136.794922,4139.230957,0.000000,2.000000,,,,0.000000,4.000000,4.000000,4.000000,4.000000,4.000000,4.000000,4.000000,4.000000,4.000000,4.000000,4.000000,4.000000,4.000000,4.000000,100.000000,,,,,,,,,,,,,,,,,,,,,,,,,,,,,,,,,,,,,,,,,,,,,,,,,,,,,,,,,,,,,,,,,,,,,,,,,,,,,,,,,,,,,,,,,,,,,,,,,,,,,,,,,,,,,,,,,
1606524535.533533,19.000000,0.000000,4168.333496,4172.307617,4180.384766,4198.461426,4228.974121,4200.769043,4188.846191,4185.000000,4203.205078,4194.102539,4177.563965,4164.615234,4140.641113,4143.846191,0.000000,2.000000,,,,0.000000,4.000000,4.000000,4.000000,4.000000,4.000000,4.000000,4.000000,4.000000,4.000000,4.000000,4.000000,4.000000,4.000000,4.000000,100.000000,,,,,,,,,,,,,,,,,,,,,,,,,,,,,,,,,,,,,,,,,,,,,,,,,,,,,,,,,,,,,,,,,,,,,,,,,,,,,,,,,,,,,,,,,,,,,,,,,,,,,,,,,,,,,,,,,
1606524535.541229,20.000000,0.000000,4176.666504,4182.436035,4184.615234,4207.436035,4234.871582,4204.743652,4201.153809,4182.307617,4196.666504,4198.846191,4185.897461,4170.897461,4150.000000,4153.974121,0.000000,2.000000,,,,0.000000,4.000000,4.000000,4.000000,4.000000,4.000000,4.000000,4.000000,4.000000,4.000000,4.000000,4.000000,4.000000,4.000000,4.000000,100.000000,5.000000,0.000000,0.640983,-0.091003,-0.751709,0.125671,0.954604,-0.348638,-0.150393,-35.291065,-119.182114,6.878767,,,,,,,,,,,,,,,,,,,,,,,,,,,,,,,,,,,,,,,,,,,,,,,,,,,,,,,,,,,,,,,,,,,,,,,,,,,,,,,,,,,,,,,,,,,,,,,,,,,,,
1606524535.548925,21.000000,0.000000,4179.487305,4180.128418,4188.974121,4217.179688,4238.077148,4206.666504,4198.846191,4195.000000,4189.871582,4189.230957,4184.358887,4174.871582,4149.102539,4156.922852,0.000000,2.000000,,,,0.000000,4.000000,4.000000,4.000000,4.000000,4.000000,4.000000,4.000000,4.000000,4.000000,4.000000,4.000000,4.000000,4.000000,4.000000,100.000000,,,,,,,,,,,,,,,,,,,,,,,,,,,,,,,,,,,,,,,,,,,,,,,,,,,,,,,,,,,,,,,,,,,,,,,,,,,,,,,,,,,,,,,,,,,,,,,,,,,,,,,,,,,,,,,,,
1606524535.556821,22.000000,0.000000,4168.589844,4168.846191,4185.384766,4195.641113,4220.384766,4200.512695,4187.179688,4202.692383,4184.871582,4176.666504,4169.871582,4171.025879,4137.948730,4149.102539,0.000000,2.000000,,,,0.000000,4.000000,4.000000,4.000000,4.000000,4.000000,4.000000,4.000000,4.000000,4.000000,4.000000,4.000000,4.000000,4.000000,4.000000,100.000000,,,,,,,,,,,,,,,,,,,,,,,,,,,,,,,,,,,,,,,,,,,,,,,,,,,,,,,,,,,,,,,,,,,,,,,,,,,,,,,,,,,,,,,,,,,,,,,,,,,,,,,,,,,,,,,,,
1606524535.564817,23.000000,0.000000,4166.666504,4168.717773,4182.307617,4184.102539,4212.436035,4199.358887,4191.794922,4195.512695,4189.358887,4188.846191,4168.974121,4168.077148,4142.179688,4148.846191,0.000000,2.000000,,,,0.000000,4.000000,4.000000,4.000000,4.000000,4.000000,4.000000,4.000000,4.000000,4.000000,4.000000,4.000000,4.000000,4.000000,4.000000,100.000000,,,,,,,,,,,,,,,,,,,,,,,,,,,,,,,,,,,,,,,,,,,,,,,,,,,,,,,,,,,,,,,,,,,,,,,,,,,,,,,,,,,,,,,,,,,,,,,,,,,,,,,,,,,,,,,,,
1606524535.572712,24.000000,0.000000,4177.948730,4182.820313,4189.102539,4206.666504,4228.461426,4203.974121,4200.384766,4197.692383,4204.102539,4193.077148,4181.410156,4175.641113,4156.153809,4160.256348,0.000000,2.000000,,,,0.000000,4.000000,4.000000,4.000000,4.000000,4.000000,4.000000,4.000000,4.000000,4.000000,4.000000,4.000000,4.000000,4.000000,4.000000,100.000000,6.000000,0.000000,0.641004,-0.091187,-0.751648,0.125793,0.956069,-0.344244,-0.163577,-36.487373,-119.182114,6.878767,,,,,,,,,,,,,,,,,,,,,,,,,,,,,,,,,,,,,,,,,,,,,,,,,,,,,,,,,,,,,,,,,,,,,,,,,,,,,,,,,,,,,,,,,,,,,,,,,,,,,
1606524535.580608,25.000000,0.000000,4177.563965,4187.948730,4199.102539,4218.205078,4241.538574,4207.307617,4200.128418,4206.794922,4210.641113,4182.563965,4179.871582,4185.256348,4157.820313,4163.846191,0.000000,2.000000,,,,0.000000,4.000000,4.000000,4.000000,4.000000,4.000000,4.000000,4.000000,4.000000,4.000000,4.000000,4.000000,4.000000,4.000000,4.000000,100.000000,,,,,,,,,,,,,,,,,,,,,,,,,,,,,,,,,,,,,,,,,,,,,,,,,,,,,,,,,,,,,,,,,,,,,,,,,,,,,,,,,,,,,,,,,,,,,,,,,,,,,,,,,,,,,,,,,
1606524535.588504,26.000000,0.000000,4166.922852,4174.743652,4196.794922,4201.538574,4227.436035,4205.000000,4197.436035,4199.871582,4194.615234,4191.025879,4166.794922,4180.769043,4148.717773,4153.461426,0.000000,2.000000,,,,0.000000,4.000000,4.000000,4.000000,4.000000,4.000000,4.000000,4.000000,4.000000,4.000000,4.000000,4.000000,4.000000,4.000000,4.000000,100.000000,,,,,,,,,,,,,,,,,,,,,,,,,,,,,,,,,,,,,,,,,,,,,,,,,,,,,,,,,,,,,,,,,,,,,,,,,,,,,,,,,,,,,,,,,,,,,,,,,,,,,,,,,,,,,,,,,
1606524535.596499,27.000000,0.000000,4175.641113,4175.897461,4193.846191,4201.922852,4210.384766,4202.692383,4198.077148,4191.922852,4189.615234,4209.743652,4174.358887,4181.410156,4152.436035,4159.487305,0.000000,2.000000,,,,0.000000,4.000000,4.000000,4.000000,4.000000,4.000000,4.000000,4.000000,4.000000,4.000000,4.000000,4.000000,4.000000,4.000000,4.000000,100.000000,,,,,,,,,,,,,,,,,,,,,,,,,,,,,,,,,,,,,,,,,,,,,,,,,,,,,,,,,,,,,,,,,,,,,,,,,,,,,,,,,,,,,,,,,,,,,,,,,,,,,,,,,,,,,,,,,
1606524535.604395,28.000000,0.000000,4191.922852,4194.230957,4202.948730,4216.538574,4218.974121,4204.615234,4202.948730,4195.000000,4199.743652,4207.051270,4188.461426,4194.743652,4160.128418,4179.871582,0.000000,2.000000,,,,0.000000,4.000000,4.000000,4.000000,4.000000,4.000000,4.000000,4.000000,4.000000,4.000000,4.000000,4.000000,4.000000,4.000000,4.000000,100.000000,7.000000,0.000000,0.640956,-0.091187,-0.751648,0.126038,0.960952,-0.333989,-0.158206,-36.487373,-119.929810,7.925536,,,,,,,,,,,,,,,,,,,,,,,,,,,,,,,,,,,,,,,,,,,,,,,,,,,,,,,,,,,,,,,,,,,,,,,,,,,,,,,,,,,,,,,,,,,,,,,,,,,,,
1606524535.612291,29.000000,0.000000,4183.846191,4188.333496,4202.820313,4207.692383,4226.025879,4202.820313,4200.512695,4183.333496,4185.897461,4187.179688,4174.743652,4193.077148,4145.897461,4172.051270,0.000000,2.000000,,,,0.000000,4.000000,4.000000,4.000000,4.000000,4.000000,4.000000,4.000000,4.000000,4.000000,4.000000,4.000000,4.000000,4.000000,4.000000,100.000000,,,,,,,,,,,,,,,,,,,,,,,,,,,,,,,,,,,,,,,,,,,,,,,,,,,,,,,,,,,,,,,,,,,,,,,,,,,,,,,,,,,,,,,,,,,,,,,,,,,,,,,,,,,,,,,,,
1606524535.619987,30.000000,0.000000,4173.461426,4166.153809,4194.871582,4194.743652,4215.256348,4196.153809,4186.153809,4165.641113,4169.743652,4183.589844,4165.384766,4180.769043,4135.641113,4156.282227,0.000000,2.000000,,,,0.000000,4.000000,4.000000,4.000000,4.000000,4.000000,4.000000,4.000000,4.000000,4.000000,4.000000,4.000000,4.000000,4.000000,4.000000,100.000000,,,,,,,,,,,,,,,,,,,,,,,,,,,,,,,,,,,,,,,,,,,,,,,,,,,,,,,,,,,,,,,,,,,,,,,,,,,,,,,,,,,,,,,,,,,,,,,,,,,,,,,,,,,,,,,,,
1606524535.627583,31.000000,0.000000,4180.641113,4166.538574,4196.666504,4198.205078,4209.871582,4195.897461,4179.487305,4172.563965,4178.461426,4186.538574,4183.077148,4182.563965,4149.743652,4164.743652,0.000000,2.000000,,,,0.000000,4.000000,4.000000,4.000000,4.000000,4.000000,4.000000,4.000000,4.000000,4.000000,4.000000,4.000000,4.000000,4.000000,4.000000,100.000000,,,,,,,,,,,,,,,,,,,,,,,,,,,,,,,,,,,,,,,,,,,,12.494652,4.052587,0.908207,0.454632,0.316299,30.684158,11.925885,2.018168,0.841210,0.908781,3.619204,1.769779,0.949961,0.410622,0.365639,6.256737,2.899537,1.072829,0.531316,0.400256,1.381260,1.044769,0.550763,0.925528,0.605534,0.775869,0.407457,0.619013,0.344474,0.263728,1.298314,0.457958,1.265878,0.718532,0.347734,5.167511,1.988079,1.564372,0.901625,0.548634,5.956922,1.878032,1.458263,0.691577,0.549711,6.052757,4.233967,2.012375,2.109127,1.698272,6.790557,1.965852,0.408310,0.382309,0.577945,7.817770,1.615651,0.590883,0.379696,0.340586,15.327070,5.623640,1.244832,0.460586,0.729631,22.127407,5.836484,1.158501,0.659442,0.443909
1606524535.635279,32.000000,0.000000,4187.051270,4180.128418,4201.410156,4203.461426,4211.538574,4200.769043,4190.512695,4187.563965,4190.000000,4183.974121,4193.846191,4194.615234,4160.000000,4175.256348,0.000000,2.000000,,,,0.000000,4.000000,4.000000,4.000000,4.000000,4.000000,4.000000,4.000000,4.000000,4.000000,4.000000,4.000000,4.000000,4.000000,4.000000,100.000000,8.000000,0.000000,0.640883,-0.090942,-0.751709,0.126221,0.942397,-0.320317,-0.161135,-37.534142,-120.079346,7.028306,,,,,,,,,,,,,,,,,,,,,,,,,,,,,,,,,,,,,,,,,,,,,,,,,,,,,,,,,,,,,,,,,,,,,,,,,,,,,,,,,,,,,,,,,,,,,,,,,,,,,
1606524535.642974,33.000000,0.000000,4187.436035,4181.794922,4200.897461,4207.307617,4215.000000,4204.230957,4200.897461,4190.256348,4190.384766,4192.179688,4190.897461,4198.589844,4159.102539,4175.000000,0.000000,2.000000,,,,0.000000,4.000000,4.000000,4.000000,4.000000,4.000000,4.000000,4.000000,4.000000,4.000000,4.000000,4.000000,4.000000,4.000000,4.000000,100.000000,,,,,,,,,,,,,,,,,,,,,,,,,,,,,,,,,,,,,,,,,,,,,,,,,,,,,,,,,,,,,,,,,,,,,,,,,,,,,,,,,,,,,,,,,,,,,,,,,,,,,,,,,,,,,,,,,
1606524535.650670,34.000000,0.000000,4180.000000,4168.589844,4193.077148,4201.410156,4214.743652,4206.410156,4196.538574,4192.051270,4187.051270,4188.846191,4184.743652,4188.974121,4154.743652,4167.179688,0.000000,2.000000,,,,0.000000,4.000000,4.000000,4.000000,4.000000,4.000000,4.000000,4.000000,4.000000,4.000000,4.000000,4.000000,4.000000,4.000000,4.000000,100.000000,,,,,,,,,,,,,,,,,,,,,,,,,,,,,,,,,,,,,,,,,,,,,,,,,,,,,,,,,,,,,,,,,,,,,,,,,,,,,,,,,,,,,,,,,,,,,,,,,,,,,,,,,,,,,,,,,
1606524535.658566,35.000000,0.000000,4175.641113,4168.077148,4193.461426,4194.743652,4212.563965,4215.128418,4197.436035,4203.205078,4190.384766,4178.589844,4182.563965,4183.333496,4153.077148,4162.436035,0.000000,2.000000,,,,0.000000,4.000000,4.000000,4.000000,4.000000,4.000000,4.000000,4.000000,4.000000,4.000000,4.000000,4.000000,4.000000,4.000000,4.000000,100.000000,,,,,,,,,,,,,,,,,,,,,,,,,,,,,,,,,,,,,,,,,,,,,,,,,,,,,,,,,,,,,,,,,,,,,,,,,,,,,,,,,,,,,,,,,,,,,,,,,,,,,,,,,,,,,,,,,
1606524535.666262,36.000000,0.000000,4183.461426,4184.871582,4203.461426,4206.025879,4217.563965,4218.974121,4211.025879,4208.077148,4199.358887,4190.512695,4191.282227,4188.461426,4158.205078,4170.128418,0.000000,2.000000,,,,0.000000,4.000000,4.000000,4.000000,4.000000,4.000000,4.000000,4.000000,4.000000,4.000000,4.000000,4.000000,4.000000,4.000000,4.000000,100.000000,9.000000,0.000000,0.640894,-0.090698,-0.751770,0.125977,0.965347,-0.334966,-0.156252,-36.786449,-119.331657,7.028306,,,,,,,,,,,,,,,,,,,,,,,,,,,,,,,,,,,,,,,,,,,,,,,,,,,,,,,,,,,,,,,,,,,,,,,,,,,,,,,,,,,,,,,,,,,,,,,,,,,,,
1606524535.673958,37.000000,0.000000,4183.717773,4190.000000,4195.256348,4211.153809,4221.666504,4208.846191,4203.974121,4193.846191,4194.230957,4206.410156,4191.410156,4186.666504,4158.846191,4171.922852,0.000000,2.000000,,,,0.000000,4.000000,4.000000,4.000000,4.000000,4.000000,4.000000,4.000000,4.000000,4.000000,4.000000,4.000000,4.000000,4.000000,4.000000,100.000000,,,,,,,,,,,,,,,,,,,,,,,,,,,,,,,,,,,,,,,,,,,,,,,,,,,,,,,,,,,,,,,,,,,,,,,,,,,,,,,,,,,,,,,,,,,,,,,,,,,,,,,,,,,,,,,,,
1606524535.681854,38.000000,0.000000,4176.666504,4192.948730,4184.615234,4202.307617,4219.487305,4202.051270,4182.051270,4180.641113,4180.384766,4211.922852,4185.384766,4180.897461,4159.358887,4168.205078,0.000000,2.000000,,,,0.000000,4.000000,4.000000,4.000000,4.000000,4.000000,4.000000,4.000000,4.000000,4.000000,4.000000,4.000000,4.000000,4.000000,4.000000,100.000000,,,,,,,,,,,,,,,,,,,,,,,,,,,,,,,,,,,,,,,,,,,,,,,,,,,,,,,,,,,,,,,,,,,,,,,,,,,,,,,,,,,,,,,,,,,,,,,,,,,,,,,,,,,,,,,,,
1606524535.689849,39.000000,0.000000,4183.077148,4204.102539,4198.333496,4206.282227,4224.230957,4212.436035,4182.179688,4184.230957,4183.589844,4219.102539,4194.230957,4186.153809,4171.538574,4178.846191,0.000000,2.000000,,,,0.000000,4.000000,4.000000,4.000000,4.000000,4.000000,4.000000,4.000000,4.000000,4.000000,4.000000,4.000000,4.000000,4.000000,4.000000,100.000000,,,,,,,,,,,,,,,,,,,,,,,,,,,,,,,,,,,,,,,,,,,,,,,,,,,,,,,,,,,,,,,,,,,,,,,,,,,,,,,,,,,,,,,,,,,,,,,,,,,,,,,,,,,,,,,,,
1606524535.697745,40.000000,0.000000,4189.871582,4202.563965,4204.871582,4210.769043,4227.563965,4221.025879,4192.051270,4188.077148,4189.230957,4209.102539,4198.461426,4189.743652,4173.717773,4184.358887,0.000000,2.000000,,,,0.000000,4.000000,4.000000,4.000000,4.000000,4.000000,4.000000,4.000000,4.000000,4.000000,4.000000,4.000000,4.000000,4.000000,4.000000,100.000000,10.000000,0.000000,0.641072,-0.090881,-0.751709,0.125305,0.960952,-0.330083,-0.168460,-35.440605,-120.079346,6.280613,,,,,,,,,,,,,,,,,,,,,,,,,,,,,,,,,,,,,,,,,,,,,,,,,,,,,,,,,,,,,,,,,,,,,,,,,,,,,,,,,,,,,,,,,,,,,,,,,,,,,
1606524535.705641,41.000000,0.000000,4178.589844,4193.077148,4187.563965,4198.974121,4209.230957,4208.974121,4184.102539,4181.794922,4180.512695,4177.307617,4186.153809,4180.897461,4158.461426,4170.512695,0.000000,2.000000,,,,0.000000,4.000000,4.000000,4.000000,4.000000,4.000000,4.000000,4.000000,4.000000,4.000000,4.000000,4.000000,4.000000,4.000000,4.000000,100.000000,,,,,,,,,,,,,,,,,,,,,,,,,,,,,,,,,,,,,,,,,,,,,,,,,,,,,,,,,,,,,,,,,,,,,,,,,,,,,,,,,,,,,,,,,,,,,,,,,,,,,,,,,,,,,,,,,
1606524535.713337,42.000000,0.000000,4170.512695,4190.512695,4178.846191,4196.153809,4198.333496,4200.128418,4186.025879,4181.282227,4175.641113,4176.666504,4183.589844,4173.461426,4152.820313,4166.410156,0.000000,2.000000,,,,0.000000,4.000000,4.000000,4.000000,4.000000,4.000000,4.000000,4.000000,4.000000,4.000000,4.000000,4.000000,4.000000,4.000000,4.000000,100.000000,,,,,,,,,,,,,,,,,,,,,,,,,,,,,,,,,,,,,,,,,,,,,,,,,,,,,,,,,,,,,,,,,,,,,,,,,,,,,,,,,,,,,,,,,,,,,,,,,,,,,,,,,,,,,,,,,
1606524535.721132,43.000000,0.000000,4169.743652,4187.051270,4180.512695,4199.358887,4209.487305,4210.641113,4204.358887,4190.384766,4179.743652,4189.230957,4186.025879,4170.769043,4155.641113,4170.641113,0.000000,2.000000,,,,0.000000,4.000000,4.000000,4.000000,4.000000,4.000000,4.000000,4.000000,4.000000,4.000000,4.000000,4.000000,4.000000,4.000000,4.000000,100.000000,,,,,,,,,,,,,,,,,,,,,,,,,,,,,,,,,,,,,,,,,,,,,,,,,,,,,,,,,,,,,,,,,,,,,,,,,,,,,,,,,,,,,,,,,,,,,,,,,,,,,,,,,,,,,,,,,
1606524535.729028,44.000000,0.000000,4170.256348,4186.410156,4181.025879,4195.897461,4217.307617,4216.794922,4210.512695,4197.307617,4184.102539,4179.230957,4184.102539,4170.128418,4154.487305,4169.358887,0.000000,2.000000,,,,0.000000,4.000000,4.000000,4.000000,4.000000,4.000000,4.000000,4.000000,4.000000,4.000000,4.000000,4.000000,4.000000,4.000000,4.000000,100.000000,11.000000,0.000000,0.641363,-0.091431,-0.751526,0.124512,0.964858,-0.312505,-0.154788,-36.786449,-119.032578,7.028306,,,,,,,,,,,,,,,,,,,,,,,,,,,,,,,,,,,,,,,,,,,,,,,,,,,,,,,,,,,,,,,,,,,,,,,,,,,,,,,,,,,,,,,,,,,,,,,,,,,,,
1606524535.736924,45.000000,0.000000,4179.230957,4194.230957,4190.769043,4204.871582,4222.563965,4216.922852,4207.563965,4200.256348,4186.922852,4187.948730,4186.282227,4180.128418,4158.205078,4176.794922,0.000000,2.000000,,,,0.000000,4.000000,4.000000,4.000000,4.000000,4.000000,4.000000,4.000000,4.000000,4.000000,4.000000,4.000000,4.000000,4.000000,4.000000,100.000000,,,,,,,,,,,,,,,,,,,,,,,,,,,,,,,,,,,,,,,,,,,,,,,,,,,,,,,,,,,,,,,,,,,,,,,,,,,,,,,,,,,,,,,,,,,,,,,,,,,,,,,,,,,,,,,,,
1606524535.744819,46.000000,0.000000,4178.077148,4183.077148,4197.051270,4202.692383,4222.563965,4215.128418,4204.487305,4203.205078,4188.461426,4205.256348,4176.025879,4185.769043,4151.410156,4178.589844,0.000000,2.000000,,,,0.000000,4.000000,4.000000,4.000000,4.000000,4.000000,4.000000,4.000000,4.000000,4.000000,4.000000,4.000000,4.000000,4.000000,4.000000,100.000000,,,,,,,,,,,,,,,,,,,,,,,,,,,,,,,,,,,,,,,,,,,,,,,,,,,,,,,,,,,,,,,,,,,,,,,,,,,,,,,,,,,,,,,,,,,,,,,,,,,,,,,,,,,,,,,,,
1606524535.752815,47.000000,0.000000,4163.717773,4163.077148,4183.846191,4188.205078,4208.333496,4205.641113,4196.666504,4198.461426,4179.615234,4184.230957,4165.000000,4173.717773,4138.205078,4161.538574,0.000000,2.000000,,,,0.000000,4.000000,4.000000,4.000000,4.000000,4.000000,4.000000,4.000000,4.000000,4.000000,4.000000,4.000000,4.000000,4.000000,4.000000,100.000000,,,,,,,,,,,,,,,,,,,,,,,,,,,,,,,,,,,,,,,,,,,,11.305093,3.721626,0.897477,0.431015,0.309977,27.284506,10.608682,1.760831,0.647443,0.881373,3.624484,1.828765,0.952749,0.408192,0.387134,5.775138,2.610577,1.009583,0.471953,0.425208,1.654921,0.894439,0.572786,0.949922,0.634427,0.671788,0.375684,0.647665,0.376522,0.255521,1.078091,0.457525,1.189119,0.673264,0.328548,4.410089,1.794895,1.623544,0.782927,0.512319,5.023335,1.527198,1.447533,0.612186,0.551835,5.451908,3.461358,2.223607,2.154960,1.885939,6.291349,1.537529,0.353426,0.349989,0.589546,7.235762,1.446648,0.574325,0.365292,0.357954,14.294662,4.543720,1.006112,0.445170,0.766650,20.311792,5.267891,1.049008,0.620371,0.477028
1606524535.760711,48.000000,0.000000,4162.692383,4169.358887,4170.000000,4194.358887,4196.282227,4199.102539,4192.820313,4181.794922,4164.102539,4158.717773,4169.358887,4165.769043,4134.615234,4151.794922,0.000000,2.000000,,,,0.000000,4.000000,4.000000,4.000000,4.000000,4.000000,4.000000,4.000000,4.000000,4.000000,4.000000,4.000000,4.000000,4.000000,4.000000,100.000000,12.000000,0.000000,0.641542,-0.091919,-0.751404,0.123962,0.969253,-0.321782,-0.145998,-35.440605,-119.032578,8.224613,,,,,,,,,,,,,,,,,,,,,,,,,,,,,,,,,,,,,,,,,,,,,,,,,,,,,,,,,,,,,,,,,,,,,,,,,,,,,,,,,,,,,,,,,,,,,,,,,,,,,
1606524535.768606,49.000000,0.000000,4166.794922,4176.538574,4176.410156,4196.794922,4204.487305,4204.743652,4199.743652,4184.615234,4171.794922,4177.179688,4166.666504,4168.974121,4127.307617,4152.307617,0.000000,2.000000,,,,0.000000,4.000000,4.000000,4.000000,4.000000,4.000000,4.000000,4.000000,4.000000,4.000000,4.000000,4.000000,4.000000,4.000000,4.000000,100.000000,,,,,,,,,,,,,,,,,,,,,,,,,,,,,,,,,,,,,,,,,,,,,,,,,,,,,,,,,,,,,,,,,,,,,,,,,,,,,,,,,,,,,,,,,,,,,,,,,,,,,,,,,,,,,,,,,
1606524535.776602,50.000000,0.000000,4156.794922,4170.897461,4184.102539,4189.487305,4213.205078,4205.897461,4200.000000,4202.307617,4187.948730,4193.717773,4158.077148,4169.102539,4128.589844,4151.025879,0.000000,2.000000,,,,0.000000,4.000000,4.000000,4.000000,4.000000,4.000000,4.000000,4.000000,4.000000,4.000000,4.000000,4.000000,4.000000,4.000000,4.000000,100.000000,,,,,,,,,,,,,,,,,,,,,,,,,,,,,,,,,,,,,,,,,,,,,,,,,,,,,,,,,,,,,,,,,,,,,,,,,,,,,,,,,,,,,,,,,,,,,,,,,,,,,,,,,,,,,,,,,
1606524535.784498,51.000000,0.000000,4161.794922,4181.025879,4181.538574,4203.589844,4209.871582,4200.128418,4193.461426,4197.307617,4182.436035,4182.051270,4168.461426,4175.384766,4157.692383,4162.692383,0.000000,2.000000,,,,0.000000,4.000000,4.000000,4.000000,4.000000,4.000000,4.000000,4.000000,4.000000,4.000000,4.000000,4.000000,4.000000,4.000000,4.000000,100.000000,,,,,,,,,,,,,,,,,,,,,,,,,,,,,,,,,,,,,,,,,,,,,,,,,,,,,,,,,,,,,,,,,,,,,,,,,,,,,,,,,,,,,,,,,,,,,,,,,,,,,,,,,,,,,,,,,
1606524535.792393,52.000000,0.000000,4188.205078,4207.692383,4187.692383,4221.153809,4206.410156,4201.025879,4190.256348,4184.230957,4179.487305,4180.769043,4189.871582,4187.563965,4191.153809,4191.794922,0.000000,2.000000,,,,0.000000,4.000000,4.000000,4.000000,4.000000,4.000000,4.000000,4.000000,4.000000,4.000000,4.000000,4.000000,4.000000,4.000000,4.000000,100.000000,13.000000,0.000000,0.641673,-0.091919,-0.751343,0.123657,0.955581,-0.319341,-0.163577,-36.487373,-121.126114,5.682460,,,,,,,,,,,,,,,,,,,,,,,,,,,,,,,,,,,,,,,,,,,,,,,,,,,,,,,,,,,,,,,,,,,,,,,,,,,,,,,,,,,,,,,,,,,,,,,,,,,,,
1606524535.800189,53.000000,0.000000,4203.461426,4229.230957,4200.128418,4220.512695,4193.077148,4202.563965,4186.666504,4185.000000,4185.897461,4188.461426,4203.717773,4190.897461,4213.974121,4213.974121,0.000000,2.000000,,,,0.000000,4.000000,4.000000,4.000000,4.000000,4.000000,4.000000,4.000000,4.000000,4.000000,4.000000,4.000000,4.000000,4.000000,4.000000,100.000000,,,,,,,,,,,,,,,,,,,,,,,,,,,,,,,,,,,,,,,,,,,,,,,,,,,,,,,,,,,,,,,,,,,,,,,,,,,,,,,,,,,,,,,,,,,,,,,,,,,,,,,,,,,,,,,,,
1606524535.808085,54.000000,0.000000,4215.641113,4249.871582,4209.615234,4225.897461,4187.307617,4197.179688,4189.871582,4189.743652,4182.436035,4191.025879,4220.384766,4202.179688,4243.333496,4234.487305,0.000000,2.000000,,,,0.000000,4.000000,4.000000,4.000000,4.000000,4.000000,4.000000,4.000000,4.000000,4.000000,4.000000,4.000000,4.000000,4.000000,4.000000,100.000000,,,,,,,,,,,,,,,,,,,,,,,,,,,,,,,,,,,,,,,,,,,,,,,,,,,,,,,,,,,,,,,,,,,,,,,,,,,,,,,,,,,,,,,,,,,,,,,,,,,,,,,,,,,,,,,,,
1606524535.816081,55.000000,0.000000,4235.000000,4269.743652,4223.974121,4238.846191,4208.205078,4196.666504,4199.487305,4195.512695,4185.897461,4201.666504,4234.102539,4220.512695,4270.256348,4259.487305,0.000000,2.000000,,,,0.000000,4.000000,4.000000,4.000000,4.000000,4.000000,4.000000,4.000000,4.000000,4.000000,4.000000,4.000000,4.000000,4.000000,4.000000,100.000000,,,,,,,,,,,,,,,,,,,,,,,,,,,,,,,,,,,,,,,,,,,,,,,,,,,,,,,,,,,,,,,,,,,,,,,,,,,,,,,,,,,,,,,,,,,,,,,,,,,,,,,,,,,,,,,,,
1606524535.823777,56.000000,0.000000,4242.307617,4272.692383,4235.384766,4243.846191,4218.846191,4205.769043,4208.333496,4205.641113,4201.282227,4218.077148,4238.077148,4223.846191,4276.025879,4266.538574,0.000000,2.000000,,,,0.000000,4.000000,4.000000,4.000000,4.000000,4.000000,4.000000,4.000000,4.000000,4.000000,4.000000,4.000000,4.000000,4.000000,4.000000,100.000000,14.000000,0.000000,0.641774,-0.092285,-0.751282,0.123230,0.969741,-0.312505,-0.161135,-35.141529,-119.331657,6.579690,,,,,,,,,,,,,,,,,,,,,,,,,,,,,,,,,,,,,,,,,,,,,,,,,,,,,,,,,,,,,,,,,,,,,,,,,,,,,,,,,,,,,,,,,,,,,,,,,,,,,
1606524535.831472,57.000000,0.000000,4230.000000,4258.461426,4229.102539,4237.948730,4206.153809,4211.666504,4209.102539,4204.743652,4197.179688,4205.256348,4235.512695,4215.256348,4268.846191,4249.615234,0.000000,2.000000,,,,0.000000,4.000000,4.000000,4.000000,4.000000,4.000000,4.000000,4.000000,4.000000,4.000000,4.000000,4.000000,4.000000,4.000000,4.000000,100.000000,,,,,,,,,,,,,,,,,,,,,,,,,,,,,,,,,,,,,,,,,,,,,,,,,,,,,,,,,,,,,,,,,,,,,,,,,,,,,,,,,,,,,,,,,,,,,,,,,,,,,,,,,,,,,,,,,
1606524535.839168,58.000000,0.000000,4216.025879,4238.461426,4211.922852,4220.384766,4193.333496,4203.717773,4201.538574,4192.179688,4179.358887,4178.333496,4223.589844,4205.769043,4249.871582,4231.922852,0.000000,2.000000,,,,0.000000,4.000000,4.000000,4.000000,4.000000,4.000000,4.000000,4.000000,4.000000,4.000000,4.000000,4.000000,4.000000,4.000000,4.000000,100.000000,,,,,,,,,,,,,,,,,,,,,,,,,,,,,,,,,,,,,,,,,,,,,,,,,,,,,,,,,,,,,,,,,,,,,,,,,,,,,,,,,,,,,,,,,,,,,,,,,,,,,,,,,,,,,,,,,
1606524535.846964,59.000000,0.000000,4211.922852,4224.615234,4200.769043,4211.666504,4185.384766,4195.000000,4195.641113,4186.538574,4177.563965,4182.179688,4210.384766,4197.563965,4233.846191,4227.948730,0.000000,2.000000,,,,0.000000,4.000000,4.000000,4.000000,4.000000,4.000000,4.000000,4.000000,4.000000,4.000000,4.000000,4.000000,4.000000,4.000000,4.000000,100.000000,,,,,,,,,,,,,,,,,,,,,,,,,,,,,,,,,,,,,,,,,,,,,,,,,,,,,,,,,,,,,,,,,,,,,,,,,,,,,,,,,,,,,,,,,,,,,,,,,,,,,,,,,,,,,,,,,
1606524535.854660,60.000000,0.000000,4217.179688,4224.615234,4208.846191,4215.897461,4190.641113,4199.487305,4201.538574,4200.384766,4196.922852,4204.230957,4213.974121,4199.615234,4238.589844,4231.922852,0.000000,2.000000,,,,0.000000,4.000000,4.000000,4.000000,4.000000,4.000000,4.000000,4.000000,4.000000,4.000000,4.000000,4.000000,4.000000,4.000000,4.000000,100.000000,15.000000,0.000000,0.641816,-0.092407,-0.751221,0.123291,0.970230,-0.338872,-0.162600,-36.935989,-119.481194,7.925536,,,,,,,,,,,,,,,,,,,,,,,,,,,,,,,,,,,,,,,,,,,,,,,,,,,,,,,,,,,,,,,,,,,,,,,,,,,,,,,,,,,,,,,,,,,,,,,,,,,,,
1606524535.862356,61.000000,0.000000,4218.461426,4227.436035,4217.051270,4216.025879,4204.487305,4204.487305,4205.000000,4215.769043,4213.846191,4216.538574,4222.820313,4207.948730,4248.077148,4234.230957,0.000000,2.000000,,,,0.000000,4.000000,4.000000,4.000000,4.000000,4.000000,4.000000,4.000000,4.000000,4.000000,4.000000,4.000000,4.000000,4.000000,4.000000,100.000000,,,,,,,,,,,,,,,,,,,,,,,,,,,,,,,,,,,,,,,,,,,,,,,,,,,,,,,,,,,,,,,,,,,,,,,,,,,,,,,,,,,,,,,,,,,,,,,,,,,,,,,,,,,,,,,,,
1606524535.870052,62.000000,0.000000,4213.461426,4223.077148,4205.769043,4221.025879,4202.692383,4203.974121,4198.461426,4215.128418,4209.615234,4218.974121,4222.307617,4206.666504,4244.743652,4229.615234,0.000000,2.000000,,,,0.000000,4.000000,4.000000,4.000000,4.000000,4.000000,4.000000,4.000000,4.000000,4.000000,4.000000,4.000000,4.000000,4.000000,4.000000,100.000000,,,,,,,,,,,,,,,,,,,,,,,,,,,,,,,,,,,,,,,,,,,,,,,,,,,,,,,,,,,,,,,,,,,,,,,,,,,,,,,,,,,,,,,,,,,,,,,,,,,,,,,,,,,,,,,,,
1606524535.877848,63.000000,0.000000,4214.230957,4215.384766,4198.205078,4229.358887,4201.025879,4205.000000,4203.461426,4221.922852,4206.153809,4219.230957,4227.436035,4202.436035,4240.641113,4228.333496,0.000000,2.000000,,,,0.000000,4.000000,4.000000,4.000000,4.000000,4.000000,4.000000,4.000000,4.000000,4.000000,4.000000,4.000000,4.000000,4.000000,4.000000,100.000000,,,,,,,,,,,,,,,,,,,,,,,,,,,,,,,,,,,,,,,,,,,,9.003054,3.054150,0.857303,0.406185,0.330693,21.382505,8.127012,1.401013,0.527580,0.843343,3.559180,1.781734,0.914782,0.406032,0.419750,5.124758,2.099289,0.905581,0.422640,0.487389,1.961779,0.730936,0.562134,0.983022,0.717329,0.578189,0.332928,0.635837,0.404670,0.256896,1.024893,0.439250,1.027554,0.637311,0.338968,3.585259,1.611345,1.572023,0.691880,0.519426,3.795840,1.127095,1.317663,0.546443,0.597617,4.618503,2.665471,2.380389,2.145474,2.078526,5.730141,1.198229,0.345643,0.324818,0.626103,6.079000,1.249828,0.513400,0.348758,0.405264,12.265721,3.434302,0.769451,0.434871,0.809669,16.338449,4.238538,0.866444,0.572891,0.542418
1606524535.885544,64.000000,0.000000,4217.051270,4215.000000,4203.846191,4221.153809,4202.307617,4202.563965,4212.436035,4234.230957,4215.128418,4218.974121,4231.666504,4205.897461,4245.000000,4232.692383,3348.000000,2.000000,,,,0.000000,4.000000,4.000000,4.000000,4.000000,4.000000,4.000000,4.000000,4.000000,4.000000,4.000000,4.000000,4.000000,4.000000,4.000000,100.000000,16.000000,0.000000,0.641808,-0.092712,-0.751160,0.123474,0.965347,-0.326665,-0.163577,-35.440605,-119.331657,6.280613,,,,,,,,,,,,,,,,,,,,,,,,,,,,,,,,,,,,,,,,,,,,,,,,,,,,,,,,,,,,,,,,,,,,,,,,,,,,,,,,,,,,,,,,,,,,,,,,,,,,,
1606524535.893240,65.000000,0.000000,4217.051270,4223.974121,4208.461426,4211.538574,4190.641113,4199.358887,4211.282227,4231.153809,4217.563965,4216.410156,4226.153809,4212.051270,4246.153809,4233.077148,3542.000000,2.000000,,,,0.000000,4.000000,4.000000,4.000000,4.000000,4.000000,4.000000,4.000000,4.000000,4.000000,4.000000,4.000000,4.000000,4.000000,4.000000,100.000000,,,,,,,,,,,,,,,,,,,,,,,,,,,,,,,,,,,,,,,,,,,,,,,,,,,,,,,,,,,,,,,,,,,,,,,,,,,,,,,,,,,,,,,,,,,,,,,,,,,,,,,,,,,,,,,,,
1606524535.900935,66.000000,0.000000,4224.230957,4232.820313,4215.256348,4223.846191,4198.974121,4210.000000,4218.846191,4233.717773,4217.948730,4210.641113,4236.922852,4218.205078,4250.256348,4241.794922,3252.000000,2.000000,,,,0.000000,4.000000,4.000000,4.000000,4.000000,4.000000,4.000000,4.000000,4.000000,4.000000,4.000000,4.000000,4.000000,4.000000,4.000000,100.000000,,,,,,,,,,,,,,,,,,,,,,,,,,,,,,,,,,,,,,,,,,,,,,,,,,,,,,,,,,,,,,,,,,,,,,,,,,,,,,,,,,,,,,,,,,,,,,,,,,,,,,,,,,,,,,,,,
1606524535.908531,67.000000,0.000000,4236.153809,4234.743652,4220.512695,4233.077148,4220.641113,4218.974121,4229.358887,4252.948730,4225.897461,4208.077148,4251.282227,4222.307617,4260.000000,4255.128418,3563.000000,2.000000,,,,0.000000,4.000000,4.000000,4.000000,4.000000,4.000000,4.000000,4.000000,4.000000,4.000000,4.000000,4.000000,4.000000,4.000000,4.000000,100.000000,,,,,,,,,,,,,,,,,,,,,,,,,,,,,,,,,,,,,,,,,,,,,,,,,,,,,,,,,,,,,,,,,,,,,,,,,,,,,,,,,,,,,,,,,,,,,,,,,,,,,,,,,,,,,,,,,
1606524535.916227,68.000000,0.000000,4230.769043,4225.641113,4214.487305,4217.307617,4211.666504,4207.051270,4212.820313,4252.692383,4225.384766,4220.641113,4238.205078,4218.589844,4253.846191,4246.794922,3555.000000,2.000000,,,,0.000000,4.000000,4.000000,4.000000,4.000000,4.000000,4.000000,4.000000,4.000000,4.000000,4.000000,4.000000,4.000000,4.000000,4.000000,100.000000,17.000000,0.000000,0.641675,-0.092651,-0.751221,0.123840,0.970230,-0.339849,-0.154788,-36.337833,-119.032578,7.028306,,,,,,,,,,,,,,,,,,,,,,,,,,,,,,,,,,,,,,,,,,,,,,,,,,,,,,,,,,,,,,,,,,,,,,,,,,,,,,,,,,,,,,,,,,,,,,,,,,,,,
1606524535.923923,69.000000,0.000000,4218.589844,4215.256348,4211.410156,4208.846191,4197.563965,4198.589844,4197.051270,4235.769043,4219.743652,4234.102539,4224.615234,4213.205078,4238.589844,4231.410156,2609.000000,2.000000,,,,0.000000,4.000000,4.000000,4.000000,4.000000,4.000000,4.000000,4.000000,4.000000,4.000000,4.000000,4.000000,4.000000,4.000000,4.000000,100.000000,,,,,,,,,,,,,,,,,,,,,,,,,,,,,,,,,,,,,,,,,,,,,,,,,,,,,,,,,,,,,,,,,,,,,,,,,,,,,,,,,,,,,,,,,,,,,,,,,,,,,,,,,,,,,,,,,
1606524535.931619,70.000000,0.000000,4217.307617,4215.256348,4208.589844,4218.589844,4194.871582,4205.256348,4208.717773,4228.717773,4216.153809,4222.051270,4227.179688,4216.025879,4232.307617,4229.871582,3207.000000,2.000000,,,,0.000000,4.000000,4.000000,4.000000,4.000000,4.000000,4.000000,4.000000,4.000000,4.000000,4.000000,4.000000,4.000000,4.000000,4.000000,100.000000,,,,,,,,,,,,,,,,,,,,,,,,,,,,,,,,,,,,,,,,,,,,,,,,,,,,,,,,,,,,,,,,,,,,,,,,,,,,,,,,,,,,,,,,,,,,,,,,,,,,,,,,,,,,,,,,,
1606524535.939415,71.000000,0.000000,4217.307617,4215.384766,4201.794922,4219.358887,4189.743652,4203.205078,4211.794922,4218.589844,4204.615234,4200.000000,4224.487305,4216.025879,4232.563965,4231.538574,3361.000000,2.000000,,,,0.000000,4.000000,4.000000,4.000000,4.000000,4.000000,4.000000,4.000000,4.000000,4.000000,4.000000,4.000000,4.000000,4.000000,4.000000,100.000000,,,,,,,,,,,,,,,,,,,,,,,,,,,,,,,,,,,,,,,,,,,,,,,,,,,,,,,,,,,,,,,,,,,,,,,,,,,,,,,,,,,,,,,,,,,,,,,,,,,,,,,,,,,,,,,,,
1606524535.947111,72.000000,0.000000,4220.769043,4214.102539,4207.820313,4213.974121,4193.077148,4193.974121,4198.589844,4202.563965,4194.358887,4203.333496,4220.512695,4213.461426,4235.641113,4236.153809,3293.000000,2.000000,,,,0.000000,4.000000,4.000000,4.000000,4.000000,4.000000,4.000000,4.000000,4.000000,4.000000,4.000000,4.000000,4.000000,4.000000,4.000000,100.000000,18.000000,0.000000,0.641553,-0.092346,-0.751282,0.124329,0.952163,-0.344244,-0.163577,-37.534142,-120.079346,7.327382,,,,,,,,,,,,,,,,,,,,,,,,,,,,,,,,,,,,,,,,,,,,,,,,,,,,,,,,,,,,,,,,,,,,,,,,,,,,,,,,,,,,,,,,,,,,,,,,,,,,,
1606524535.954807,73.000000,0.000000,4232.051270,4223.333496,4220.641113,4218.846191,4204.615234,4198.205078,4199.358887,4199.615234,4200.128418,4216.025879,4228.974121,4224.358887,4243.461426,4248.333496,3594.000000,2.000000,,,,0.000000,4.000000,4.000000,4.000000,4.000000,4.000000,4.000000,4.000000,4.000000,4.000000,4.000000,4.000000,4.000000,4.000000,4.000000,100.000000,,,,,,,,,,,,,,,,,,,,,,,,,,,,,,,,,,,,,,,,,,,,,,,,,,,,,,,,,,,,,,,,,,,,,,,,,,,,,,,,,,,,,,,,,,,,,,,,,,,,,,,,,,,,,,,,,
1606524535.962503,74.000000,0.000000,4240.769043,4233.205078,4223.974121,4234.102539,4208.077148,4210.512695,4209.487305,4209.487305,4214.871582,4215.512695,4237.307617,4236.282227,4252.948730,4254.615234,3469.000000,2.000000,,,,0.000000,4.000000,4.000000,4.000000,4.000000,4.000000,4.000000,4.000000,4.000000,4.000000,4.000000,4.000000,4.000000,4.000000,4.000000,100.000000,,,,,,,,,,,,,,,,,,,,,,,,,,,,,,,,,,,,,,,,,,,,,,,,,,,,,,,,,,,,,,,,,,,,,,,,,,,,,,,,,,,,,,,,,,,,,,,,,,,,,,,,,,,,,,,,,
1606524535.970299,75.000000,0.000000,4231.666504,4221.666504,4216.153809,4234.358887,4203.461426,4204.358887,4203.717773,4208.205078,4213.077148,4209.743652,4225.769043,4226.153809,4244.743652,4245.128418,3530.000000,2.000000,,,,0.000000,4.000000,4.000000,4.000000,4.000000,4.000000,4.000000,4.000000,4.000000,4.000000,4.000000,4.000000,4.000000,4.000000,4.000000,100.000000,,,,,,,,,,,,,,,,,,,,,,,,,,,,,,,,,,,,,,,,,,,,,,,,,,,,,,,,,,,,,,,,,,,,,,,,,,,,,,,,,,,,,,,,,,,,,,,,,,,,,,,,,,,,,,,,,
1606524535.977994,76.000000,0.000000,4211.282227,4199.871582,4200.512695,4207.820313,4186.794922,4184.615234,4187.307617,4187.563965,4188.589844,4202.051270,4197.820313,4202.692383,4218.974121,4223.846191,3462.000000,2.000000,,,,0.000000,4.000000,4.000000,4.000000,4.000000,4.000000,4.000000,4.000000,4.000000,4.000000,4.000000,4.000000,4.000000,4.000000,4.000000,100.000000,19.000000,0.000000,0.641400,-0.091919,-0.751404,0.124695,0.948745,-0.334966,-0.166995,-37.534142,-118.583961,7.028306,,,,,,,,,,,,,,,,,,,,,,,,,,,,,,,,,,,,,,,,,,,,,,,,,,,,,,,,,,,,,,,,,,,,,,,,,,,,,,,,,,,,,,,,,,,,,,,,,,,,,
1606524535.985890,77.000000,0.000000,4204.230957,4197.436035,4193.589844,4197.436035,4176.410156,4188.589844,4183.077148,4176.025879,4178.077148,4193.717773,4189.743652,4196.025879,4211.282227,4212.436035,3220.000000,2.000000,,,,0.000000,4.000000,4.000000,4.000000,4.000000,4.000000,4.000000,4.000000,4.000000,4.000000,4.000000,4.000000,4.000000,4.000000,4.000000,100.000000,,,,,,,,,,,,,,,,,,,,,,,,,,,,,,,,,,,,,,,,,,,,,,,,,,,,,,,,,,,,,,,,,,,,,,,,,,,,,,,,,,,,,,,,,,,,,,,,,,,,,,,,,,,,,,,,,
1606524535.993786,78.000000,0.000000,4216.666504,4212.948730,4207.563965,4216.922852,4192.051270,4207.307617,4188.974121,4189.487305,4196.794922,4203.717773,4212.563965,4210.897461,4232.307617,4223.461426,3469.000000,2.000000,,,,0.000000,4.000000,4.000000,4.000000,4.000000,4.000000,4.000000,4.000000,4.000000,4.000000,4.000000,4.000000,4.000000,4.000000,4.000000,100.000000,,,,,,,,,,,,,,,,,,,,,,,,,,,,,,,,,,,,,,,,,,,,,,,,,,,,,,,,,,,,,,,,,,,,,,,,,,,,,,,,,,,,,,,,,,,,,,,,,,,,,,,,,,,,,,,,,
1606524536.001782,79.000000,0.000000,4225.256348,4213.589844,4218.717773,4225.128418,4198.589844,4203.461426,4188.589844,4202.692383,4205.512695,4217.307617,4224.358887,4220.897461,4243.974121,4233.461426,3530.000000,2.000000,,,,0.000000,4.000000,4.000000,4.000000,4.000000,4.000000,4.000000,4.000000,4.000000,4.000000,4.000000,4.000000,4.000000,4.000000,4.000000,100.000000,,,,,,,,,,,,,,,,,,,,,,,,,,,,,,,,,,,,,,,,,,,,6.564091,2.304491,0.806258,0.392124,0.368144,14.693182,5.318421,1.044751,0.469657,0.797599,3.654340,1.636048,0.836895,0.417979,0.452566,4.442049,1.514035,0.808918,0.384940,0.573823,2.259130,0.588311,0.523080,1.018817,0.816102,0.499254,0.286748,0.583183,0.426619,0.261244,1.058532,0.417682,0.855527,0.633777,0.371403,2.872119,1.507094,1.441164,0.668717,0.561908,2.601382,0.780995,1.096579,0.519518,0.668984,3.752756,2.003719,2.355098,2.084798,2.215704,5.514978,1.050563,0.366895,0.318471,0.670669,4.845038,1.082128,0.428365,0.346754,0.462924,10.367308,2.666794,0.585332,0.433615,0.835116,11.846847,3.165291,0.666496,0.539937,0.616571
1606524536.009677,80.000000,0.000000,4219.230957,4200.000000,4211.282227,4218.717773,4184.230957,4190.512695,4183.846191,4196.538574,4197.307617,4214.358887,4213.846191,4214.743652,4234.615234,4225.641113,3462.000000,2.000000,,,,0.000000,4.000000,4.000000,4.000000,4.000000,4.000000,4.000000,4.000000,4.000000,4.000000,4.000000,4.000000,4.000000,4.000000,4.000000,100.000000,20.000000,0.000000,0.641305,-0.091919,-0.751465,0.124817,0.958022,-0.338872,-0.159182,-36.935989,-119.481194,9.121843,,,,,,,,,,,,,,,,,,,,,,,,,,,,,,,,,,,,,,,,,,,,,,,,,,,,,,,,,,,,,,,,,,,,,,,,,,,,,,,,,,,,,,,,,,,,,,,,,,,,,
1606524536.017373,81.000000,0.000000,4218.077148,4207.436035,4210.512695,4221.410156,4185.512695,4199.358887,4189.230957,4189.102539,4201.153809,4206.153809,4213.974121,4214.615234,4231.282227,4223.205078,3220.000000,2.000000,,,,0.000000,4.000000,4.000000,4.000000,4.000000,4.000000,4.000000,4.000000,4.000000,4.000000,4.000000,4.000000,4.000000,4.000000,4.000000,100.000000,,,,,,,,,,,,,,,,,,,,,,,,,,,,,,,,,,,,,,,,,,,,,,,,,,,,,,,,,,,,,,,,,,,,,,,,,,,,,,,,,,,,,,,,,,,,,,,,,,,,,,,,,,,,,,,,,
1606524536.025069,82.000000,0.000000,4218.205078,4217.563965,4212.179688,4218.461426,4189.615234,4203.846191,4188.589844,4184.615234,4198.205078,4192.436035,4219.615234,4214.230957,4231.794922,4222.948730,3469.000000,2.000000,,,,0.000000,4.000000,4.000000,4.000000,4.000000,4.000000,4.000000,4.000000,4.000000,4.000000,4.000000,4.000000,4.000000,4.000000,4.000000,100.000000,,,,,,,,,,,,,,,,,,,,,,,,,,,,,,,,,,,,,,,,,,,,,,,,,,,,,,,,,,,,,,,,,,,,,,,,,,,,,,,,,,,,,,,,,,,,,,,,,,,,,,,,,,,,,,,,,
1606524536.032665,83.000000,0.000000,4217.179688,4206.794922,4208.077148,4215.000000,4180.128418,4197.051270,4183.461426,4186.922852,4188.974121,4190.897461,4214.487305,4204.230957,4230.128418,4217.948730,3530.000000,2.000000,,,,0.000000,4.000000,4.000000,4.000000,4.000000,4.000000,4.000000,4.000000,4.000000,4.000000,4.000000,4.000000,4.000000,4.000000,4.000000,100.000000,,,,,,,,,,,,,,,,,,,,,,,,,,,,,,,,,,,,,,,,,,,,,,,,,,,,,,,,,,,,,,,,,,,,,,,,,,,,,,,,,,,,,,,,,,,,,,,,,,,,,,,,,,,,,,,,,
1606524536.040361,84.000000,0.000000,4221.922852,4208.589844,4212.948730,4225.128418,4189.102539,4208.974121,4197.563965,4192.820313,4189.615234,4201.538574,4208.077148,4205.769043,4232.563965,4221.153809,3462.000000,2.000000,,,,0.000000,4.000000,4.000000,4.000000,4.000000,4.000000,4.000000,4.000000,4.000000,4.000000,4.000000,4.000000,4.000000,4.000000,4.000000,100.000000,21.000000,0.000000,0.641260,-0.091736,-0.751465,0.125183,0.954604,-0.327642,-0.155764,-36.337833,-119.780273,8.224613,,,,,,,,,,,,,,,,,,,,,,,,,,,,,,,,,,,,,,,,,,,,,,,,,,,,,,,,,,,,,,,,,,,,,,,,,,,,,,,,,,,,,,,,,,,,,,,,,,,,,
1606524536.048057,85.000000,0.000000,4221.794922,4219.743652,4214.487305,4226.666504,4202.692383,4215.769043,4205.384766,4185.384766,4185.000000,4197.820313,4206.025879,4212.948730,4233.717773,4223.974121,3220.000000,2.000000,,,,0.000000,4.000000,4.000000,4.000000,4.000000,4.000000,4.000000,4.000000,4.000000,4.000000,4.000000,4.000000,4.000000,4.000000,4.000000,100.000000,,,,,,,,,,,,,,,,,,,,,,,,,,,,,,,,,,,,,,,,,,,,,,,,,,,,,,,,,,,,,,,,,,,,,,,,,,,,,,,,,,,,,,,,,,,,,,,,,,,,,,,,,,,,,,,,,
1606524536.055753,86.000000,0.000000,4216.794922,4211.538574,4202.820313,4217.179688,4193.717773,4200.256348,4187.179688,4177.820313,4180.641113,4184.230957,4204.743652,4206.794922,4232.948730,4219.615234,3469.000000,2.000000,,,,0.000000,4.000000,4.000000,4.000000,4.000000,4.000000,4.000000,4.000000,4.000000,4.000000,4.000000,4.000000,4.000000,4.000000,4.000000,100.000000,,,,,,,,,,,,,,,,,,,,,,,,,,,,,,,,,,,,,,,,,,,,,,,,,,,,,,,,,,,,,,,,,,,,,,,,,,,,,,,,,,,,,,,,,,,,,,,,,,,,,,,,,,,,,,,,,
1606524536.063549,87.000000,0.000000,4215.512695,4200.000000,4198.974121,4211.666504,4181.410156,4192.948730,4177.436035,4183.077148,4182.948730,4183.974121,4202.563965,4199.871582,4233.077148,4217.436035,3530.000000,2.000000,,,,0.000000,4.000000,4.000000,4.000000,4.000000,4.000000,4.000000,4.000000,4.000000,4.000000,4.000000,4.000000,4.000000,4.000000,4.000000,100.000000,,,,,,,,,,,,,,,,,,,,,,,,,,,,,,,,,,,,,,,,,,,,,,,,,,,,,,,,,,,,,,,,,,,,,,,,,,,,,,,,,,,,,,,,,,,,,,,,,,,,,,,,,,,,,,,,,
1606524536.071444,88.000000,0.000000,4215.512695,4201.153809,4203.717773,4213.589844,4173.717773,4197.436035,4185.641113,4187.179688,4179.230957,4196.153809,4201.538574,4201.794922,4233.974121,4215.512695,3462.000000,2.000000,,,,0.000000,4.000000,4.000000,4.000000,4.000000,4.000000,4.000000,4.000000,4.000000,4.000000,4.000000,4.000000,4.000000,4.000000,4.000000,100.000000,22.000000,0.000000,0.641267,-0.092102,-0.751404,0.125244,0.963394,-0.326177,-0.161624,-34.842449,-119.182114,6.131075,,,,,,,,,,,,,,,,,,,,,,,,,,,,,,,,,,,,,,,,,,,,,,,,,,,,,,,,,,,,,,,,,,,,,,,,,,,,,,,,,,,,,,,,,,,,,,,,,,,,,
1606524536.079140,89.000000,0.000000,4211.153809,4205.256348,4202.307617,4221.538574,4174.743652,4200.128418,4186.410156,4184.230957,4183.205078,4194.358887,4205.769043,4200.256348,4231.794922,4209.871582,3220.000000,2.000000,,,,0.000000,4.000000,4.000000,4.000000,4.000000,4.000000,4.000000,4.000000,4.000000,4.000000,4.000000,4.000000,4.000000,4.000000,4.000000,100.000000,,,,,,,,,,,,,,,,,,,,,,,,,,,,,,,,,,,,,,,,,,,,,,,,,,,,,,,,,,,,,,,,,,,,,,,,,,,,,,,,,,,,,,,,,,,,,,,,,,,,,,,,,,,,,,,,,
1606524536.086836,90.000000,0.000000,4213.333496,4215.128418,4209.358887,4226.794922,4194.102539,4207.051270,4189.615234,4183.205078,4198.077148,4198.974121,4210.384766,4198.333496,4233.846191,4212.820313,3469.000000,2.000000,,,,0.000000,4.000000,4.000000,4.000000,4.000000,4.000000,4.000000,4.000000,4.000000,4.000000,4.000000,4.000000,4.000000,4.000000,4.000000,100.000000,,,,,,,,,,,,,,,,,,,,,,,,,,,,,,,,,,,,,,,,,,,,,,,,,,,,,,,,,,,,,,,,,,,,,,,,,,,,,,,,,,,,,,,,,,,,,,,,,,,,,,,,,,,,,,,,,
1606524536.094632,91.000000,0.000000,4219.615234,4223.589844,4217.692383,4220.641113,4203.974121,4211.282227,4202.051270,4191.153809,4194.358887,4209.871582,4207.948730,4203.333496,4237.820313,4217.948730,3530.000000,2.000000,,,,0.000000,4.000000,4.000000,4.000000,4.000000,4.000000,4.000000,4.000000,4.000000,4.000000,4.000000,4.000000,4.000000,4.000000,4.000000,100.000000,,,,,,,,,,,,,,,,,,,,,,,,,,,,,,,,,,,,,,,,,,,,,,,,,,,,,,,,,,,,,,,,,,,,,,,,,,,,,,,,,,,,,,,,,,,,,,,,,,,,,,,,,,,,,,,,,
1606524536.102328,92.000000,0.000000,4208.974121,4207.820313,4206.794922,4211.410156,4186.153809,4200.769043,4199.871582,4197.692383,4180.128418,4188.461426,4192.051270,4199.615234,4218.589844,4200.512695,3462.000000,2.000000,,,,0.000000,4.000000,4.000000,4.000000,4.000000,4.000000,4.000000,4.000000,4.000000,4.000000,4.000000,4.000000,4.000000,4.000000,4.000000,100.000000,23.000000,0.000000,0.641247,-0.092407,-0.751343,0.125488,0.963394,-0.329595,-0.157229,-35.440605,-119.032578,7.028306,,,,,,,,,,,,,,,,,,,,,,,,,,,,,,,,,,,,,,,,,,,,,,,,,,,,,,,,,,,,,,,,,,,,,,,,,,,,,,,,,,,,,,,,,,,,,,,,,,,,,
1606524536.110224,93.000000,0.000000,4196.538574,4188.333496,4196.410156,4211.538574,4174.743652,4196.666504,4193.205078,4192.692383,4183.077148,4168.461426,4181.794922,4190.128418,4198.846191,4184.743652,3220.000000,2.000000,,,,0.000000,4.000000,4.000000,4.000000,4.000000,4.000000,4.000000,4.000000,4.000000,4.000000,4.000000,4.000000,4.000000,4.000000,4.000000,100.000000,,,,,,,,,,,,,,,,,,,,,,,,,,,,,,,,,,,,,,,,,,,,,,,,,,,,,,,,,,,,,,,,,,,,,,,,,,,,,,,,,,,,,,,,,,,,,,,,,,,,,,,,,,,,,,,,,
1606524536.117919,94.000000,0.000000,4210.641113,4194.743652,4204.871582,4216.282227,4186.538574,4208.205078,4205.641113,4186.666504,4191.666504,4199.871582,4199.487305,4200.256348,4224.102539,4202.436035,3469.000000,2.000000,,,,0.000000,4.000000,4.000000,4.000000,4.000000,4.000000,4.000000,4.000000,4.000000,4.000000,4.000000,4.000000,4.000000,4.000000,4.000000,100.000000,,,,,,,,,,,,,,,,,,,,,,,,,,,,,,,,,,,,,,,,,,,,,,,,,,,,,,,,,,,,,,,,,,,,,,,,,,,,,,,,,,,,,,,,,,,,,,,,,,,,,,,,,,,,,,,,,
1606524536.125715,95.000000,0.000000,4236.153809,4214.743652,4220.384766,4226.153809,4202.692383,4218.846191,4224.487305,4205.128418,4200.897461,4239.230957,4225.769043,4226.538574,4262.820313,4231.025879,3530.000000,2.000000,,,,0.000000,4.000000,4.000000,4.000000,4.000000,4.000000,4.000000,4.000000,4.000000,4.000000,4.000000,4.000000,4.000000,4.000000,4.000000,100.000000,,,,,,,,,,,,,,,,,,,,,,,,,,,,,,,,,,,,,,,,,,,,4.949802,1.778209,0.783800,0.398833,0.408537,9.277721,3.234096,0.838408,0.455443,0.749516,4.057441,1.457771,0.756482,0.456242,0.474829,3.863597,1.044342,0.771488,0.363309,0.662911,2.470635,0.482691,0.472401,1.062046,0.889785,0.440628,0.246729,0.507916,0.441766,0.263598,1.097227,0.410016,0.747864,0.671835,0.412499,2.351444,1.542437,1.321403,0.723950,0.620598,1.672006,0.564521,0.866969,0.540459,0.739892,3.019847,1.562101,2.202710,2.005482,2.256644,5.880489,1.182959,0.432386,0.337943,0.703750,4.025012,0.996297,0.367199,0.373518,0.508574,9.731254,2.634162,0.562485,0.456910,0.823021,8.566578,2.564889,0.581486,0.543266,0.673801
1606524536.133411,96.000000,0.000000,4239.615234,4212.820313,4223.717773,4230.897461,4202.307617,4218.461426,4219.102539,4219.871582,4205.384766,4229.615234,4225.128418,4230.512695,4258.461426,4229.615234,3462.000000,2.000000,,,,0.000000,4.000000,4.000000,4.000000,4.000000,4.000000,4.000000,4.000000,4.000000,4.000000,4.000000,4.000000,4.000000,4.000000,4.000000,100.000000,24.000000,0.000000,0.641349,-0.092773,-0.751221,0.125427,0.956558,-0.343267,-0.167971,-38.281834,-120.079346,7.028306,,,,,,,,,,,,,,,,,,,,,,,,,,,,,,,,,,,,,,,,,,,,,,,,,,,,,,,,,,,,,,,,,,,,,,,,,,,,,,,,,,,,,,,,,,,,,,,,,,,,,
1606524536.141107,97.000000,0.000000,4225.000000,4194.615234,4216.153809,4220.641113,4189.615234,4211.153809,4204.230957,4208.461426,4201.538574,4208.205078,4211.922852,4216.922852,4236.153809,4213.589844,3220.000000,2.000000,,,,0.000000,4.000000,4.000000,4.000000,4.000000,4.000000,4.000000,4.000000,4.000000,4.000000,4.000000,4.000000,4.000000,4.000000,4.000000,100.000000,,,,,,,,,,,,,,,,,,,,,,,,,,,,,,,,,,,,,,,,,,,,,,,,,,,,,,,,,,,,,,,,,,,,,,,,,,,,,,,,,,,,,,,,,,,,,,,,,,,,,,,,,,,,,,,,,
1606524536.148803,98.000000,0.000000,4219.102539,4198.461426,4216.025879,4216.794922,4194.102539,4207.692383,4207.563965,4203.333496,4202.051270,4211.282227,4218.205078,4217.436035,4240.897461,4217.179688,3469.000000,2.000000,,,,0.000000,4.000000,4.000000,4.000000,4.000000,4.000000,4.000000,4.000000,4.000000,4.000000,4.000000,4.000000,4.000000,4.000000,4.000000,100.000000,,,,,,,,,,,,,,,,,,,,,,,,,,,,,,,,,,,,,,,,,,,,,,,,,,,,,,,,,,,,,,,,,,,,,,,,,,,,,,,,,,,,,,,,,,,,,,,,,,,,,,,,,,,,,,,,,
1606524536.156599,99.000000,0.000000,4218.461426,4212.563965,4217.051270,4223.077148,4200.641113,4203.461426,4210.384766,4206.410156,4203.589844,4218.077148,4223.974121,4220.000000,4248.077148,4226.025879,3530.000000,2.000000,,,,0.000000,4.000000,4.000000,4.000000,4.000000,4.000000,4.000000,4.000000,4.000000,4.000000,4.000000,4.000000,4.000000,4.000000,4.000000,100.000000,,,,,,,,,,,,,,,,,,,,,,,,,,,,,,,,,,,,,,,,,,,,,,,,,,,,,,,,,,,,,,,,,,,,,,,,,,,,,,,,,,,,,,,,,,,,,,,,,,,,,,,,,,,,,,,,,
1606524536.164295,100.000000,0.000000,4210.769043,4203.077148,4208.846191,4221.153809,4190.256348,4197.563965,4197.051270,4202.179688,4202.179688,4209.743652,4214.102539,4208.846191,4238.333496,4219.102539,3462.000000,2.000000,,,,0.000000,4.000000,4.000000,4.000000,4.000000,4.000000,4.000000,4.000000,4.000000,4.000000,4.000000,4.000000,4.000000,4.000000,4.000000,100.000000,25.000000,0.000000,0.641071,-0.092712,-0.751343,0.126160,0.966323,-0.333013,-0.160647,-35.291065,-119.929810,7.626459,,,,,,,,,,,,,,,,,,,,,,,,,,,,,,,,,,,,,,,,,,,,,,,,,,,,,,,,,,,,,,,,,,,,,,,,,,,,,,,,,,,,,,,,,,,,,,,,,,,,,
1606524536.171991,101.000000,0.000000,4200.641113,4179.230957,4201.153809,4213.846191,4178.717773,4198.846191,4188.846191,4198.846191,4202.820313,4196.538574,4202.820313,4197.436035,4228.974121,4204.230957,3220.000000,2.000000,,,,0.000000,4.000000,4.000000,4.000000,4.000000,4.000000,4.000000,4.000000,4.000000,4.000000,4.000000,4.000000,4.000000,4.000000,4.000000,100.000000,,,,,,,,,,,,,,,,,,,,,,,,,,,,,,,,,,,,,,,,,,,,,,,,,,,,,,,,,,,,,,,,,,,,,,,,,,,,,,,,,,,,,,,,,,,,,,,,,,,,,,,,,,,,,,,,,
1606524536.179687,102.000000,0.000000,4196.922852,4178.077148,4198.461426,4208.846191,4172.692383,4195.384766,4192.563965,4193.461426,4197.179688,4204.743652,4199.358887,4197.436035,4224.871582,4198.205078,3469.000000,2.000000,,,,0.000000,4.000000,4.000000,4.000000,4.000000,4.000000,4.000000,4.000000,4.000000,4.000000,4.000000,4.000000,4.000000,4.000000,4.000000,100.000000,,,,,,,,,,,,,,,,,,,,,,,,,,,,,,,,,,,,,,,,,,,,,,,,,,,,,,,,,,,,,,,,,,,,,,,,,,,,,,,,,,,,,,,,,,,,,,,,,,,,,,,,,,,,,,,,,
1606524536.187682,103.000000,0.000000,4202.179688,4198.077148,4204.102539,4210.512695,4182.948730,4197.436035,4197.436035,4192.563965,4200.256348,4221.794922,4206.922852,4202.948730,4230.769043,4208.461426,3530.000000,2.000000,,,,0.000000,4.000000,4.000000,4.000000,4.000000,4.000000,4.000000,4.000000,4.000000,4.000000,4.000000,4.000000,4.000000,4.000000,4.000000,100.000000,,,,,,,,,,,,,,,,,,,,,,,,,,,,,,,,,,,,,,,,,,,,,,,,,,,,,,,,,,,,,,,,,,,,,,,,,,,,,,,,,,,,,,,,,,,,,,,,,,,,,,,,,,,,,,,,,
1606524536.195578,104.000000,0.000000,4206.666504,4206.666504,4213.077148,4216.794922,4204.230957,4206.538574,4201.922852,4204.102539,4215.512695,4214.358887,4217.563965,4204.615234,4243.846191,4222.563965,3462.000000,2.000000,,,,0.000000,4.000000,4.000000,4.000000,4.000000,4.000000,4.000000,4.000000,4.000000,4.000000,4.000000,4.000000,4.000000,4.000000,4.000000,100.000000,26.000000,0.000000,0.641001,-0.092529,-0.751343,0.126648,0.966812,-0.338384,-0.157717,-37.085526,-118.583961,6.579690,,,,,,,,,,,,,,,,,,,,,,,,,,,,,,,,,,,,,,,,,,,,,,,,,,,,,,,,,,,,,,,,,,,,,,,,,,,,,,,,,,,,,,,,,,,,,,,,,,,,,
1606524536.203474,105.000000,0.000000,4205.256348,4201.410156,4204.615234,4220.384766,4205.128418,4205.641113,4203.077148,4208.846191,4212.563965,4207.436035,4219.358887,4202.820313,4245.128418,4219.743652,3220.000000,2.000000,,,,0.000000,4.000000,4.000000,4.000000,4.000000,4.000000,4.000000,4.000000,4.000000,4.000000,4.000000,4.000000,4.000000,4.000000,4.000000,100.000000,,,,,,,,,,,,,,,,,,,,,,,,,,,,,,,,,,,,,,,,,,,,,,,,,,,,,,,,,,,,,,,,,,,,,,,,,,,,,,,,,,,,,,,,,,,,,,,,,,,,,,,,,,,,,,,,,
1606524536.211369,106.000000,0.000000,4193.717773,4192.307617,4185.000000,4218.461426,4187.051270,4197.307617,4196.538574,4199.743652,4196.922852,4222.307617,4207.307617,4196.538574,4228.461426,4203.333496,3469.000000,2.000000,,,,0.000000,4.000000,4.000000,4.000000,4.000000,4.000000,4.000000,4.000000,4.000000,4.000000,4.000000,4.000000,4.000000,4.000000,4.000000,100.000000,,,,,,,,,,,,,,,,,,,,,,,,,,,,,,,,,,,,,,,,,,,,,,,,,,,,,,,,,,,,,,,,,,,,,,,,,,,,,,,,,,,,,,,,,,,,,,,,,,,,,,,,,,,,,,,,,
1606524536.219165,107.000000,0.000000,4185.000000,4184.743652,4184.102539,4212.179688,4180.769043,4192.948730,4186.025879,4197.692383,4198.461426,4219.230957,4196.410156,4192.179688,4219.871582,4194.871582,3530.000000,2.000000,,,,0.000000,4.000000,4.000000,4.000000,4.000000,4.000000,4.000000,4.000000,4.000000,4.000000,4.000000,4.000000,4.000000,4.000000,4.000000,100.000000,,,,,,,,,,,,,,,,,,,,,,,,,,,,,,,,,,,,,,,,,,,,,,,,,,,,,,,,,,,,,,,,,,,,,,,,,,,,,,,,,,,,,,,,,,,,,,,,,,,,,,,,,,,,,,,,,
1606524536.226861,108.000000,0.000000,4192.820313,4187.436035,4198.205078,4203.974121,4186.153809,4193.205078,4180.384766,4201.538574,4203.974121,4205.641113,4203.846191,4198.333496,4226.666504,4199.487305,3462.000000,2.000000,,,,0.000000,4.000000,4.000000,4.000000,4.000000,4.000000,4.000000,4.000000,4.000000,4.000000,4.000000,4.000000,4.000000,4.000000,4.000000,100.000000,27.000000,0.000000,0.641095,-0.092712,-0.751282,0.126404,0.966812,-0.341802,-0.163577,-37.085526,-119.032578,8.224613,,,,,,,,,,,,,,,,,,,,,,,,,,,,,,,,,,,,,,,,,,,,,,,,,,,,,,,,,,,,,,,,,,,,,,,,,,,,,,,,,,,,,,,,,,,,,,,,,,,,,
1606524536.234557,109.000000,0.000000,4201.922852,4190.769043,4200.512695,4203.846191,4188.461426,4194.615234,4183.717773,4202.563965,4198.589844,4210.512695,4215.000000,4202.179688,4230.769043,4199.871582,3220.000000,2.000000,,,,0.000000,4.000000,4.000000,4.000000,4.000000,4.000000,4.000000,4.000000,4.000000,4.000000,4.000000,4.000000,4.000000,4.000000,4.000000,100.000000,,,,,,,,,,,,,,,,,,,,,,,,,,,,,,,,,,,,,,,,,,,,,,,,,,,,,,,,,,,,,,,,,,,,,,,,,,,,,,,,,,,,,,,,,,,,,,,,,,,,,,,,,,,,,,,,,
1606524536.242253,110.000000,0.000000,4198.333496,4188.461426,4198.461426,4210.769043,4187.051270,4198.974121,4185.897461,4201.538574,4195.000000,4208.461426,4213.974121,4201.666504,4228.205078,4195.769043,3469.000000,2.000000,,,,0.000000,4.000000,4.000000,4.000000,4.000000,4.000000,4.000000,4.000000,4.000000,4.000000,4.000000,4.000000,4.000000,4.000000,4.000000,100.000000,,,,,,,,,,,,,,,,,,,,,,,,,,,,,,,,,,,,,,,,,,,,,,,,,,,,,,,,,,,,,,,,,,,,,,,,,,,,,,,,,,,,,,,,,,,,,,,,,,,,,,,,,,,,,,,,,
1606524536.249849,111.000000,0.000000,4197.307617,4192.307617,4206.538574,4212.563965,4183.461426,4202.307617,4183.077148,4203.461426,4196.794922,4201.282227,4210.512695,4207.820313,4227.051270,4202.948730,3530.000000,2.000000,,,,0.000000,4.000000,4.000000,4.000000,4.000000,4.000000,4.000000,4.000000,4.000000,4.000000,4.000000,4.000000,4.000000,4.000000,4.000000,100.000000,,,,,,,,,,,,,,,,,,,,,,,,,,,,,,,,,,,,,,,,,,,,4.575364,1.672169,0.826007,0.433681,0.437895,6.384271,2.561259,0.863807,0.471364,0.702320,4.711692,1.334785,0.716875,0.523240,0.479152,3.462040,0.817095,0.806531,0.361953,0.730508,2.543219,0.410459,0.430263,1.124811,0.909660,0.415746,0.219051,0.432690,0.450686,0.263440,1.122509,0.420926,0.745846,0.737024,0.449488,2.108911,1.734562,1.291936,0.830462,0.670517,1.091727,0.495729,0.704443,0.595611,0.786469,2.510543,1.322005,2.024769,1.937043,2.185611,6.773182,1.616986,0.564069,0.383699,0.709916,3.854928,1.021675,0.375269,0.430070,0.524885,11.088058,3.518303,0.785609,0.519615,0.765748,7.376386,2.754359,0.714183,0.595487,0.694110
1606524536.257545,112.000000,0.000000,4211.025879,4203.461426,4217.307617,4216.025879,4188.333496,4201.794922,4182.692383,4209.102539,4202.820313,4219.230957,4219.615234,4219.358887,4238.846191,4217.820313,3462.000000,2.000000,,,,0.000000,4.000000,4.000000,4.000000,4.000000,4.000000,4.000000,4.000000,4.000000,4.000000,4.000000,4.000000,4.000000,4.000000,4.000000,100.000000,28.000000,0.000000,0.641287,-0.093201,-0.751160,0.125793,0.952651,-0.346197,-0.156741,-38.132298,-119.481194,6.878767,,,,,,,,,,,,,,,,,,,,,,,,,,,,,,,,,,,,,,,,,,,,,,,,,,,,,,,,,,,,,,,,,,,,,,,,,,,,,,,,,,,,,,,,,,,,,,,,,,,,,
1606524536.265441,113.000000,0.000000,4220.512695,4206.922852,4219.743652,4214.487305,4197.692383,4196.794922,4185.128418,4208.717773,4203.846191,4225.384766,4233.589844,4230.000000,4249.358887,4222.563965,3220.000000,2.000000,,,,0.000000,4.000000,4.000000,4.000000,4.000000,4.000000,4.000000,4.000000,4.000000,4.000000,4.000000,4.000000,4.000000,4.000000,4.000000,100.000000,,,,,,,,,,,,,,,,,,,,,,,,,,,,,,,,,,,,,,,,,,,,,,,,,,,,,,,,,,,,,,,,,,,,,,,,,,,,,,,,,,,,,,,,,,,,,,,,,,,,,,,,,,,,,,,,,
1606524536.273136,114.000000,0.000000,4214.487305,4198.974121,4217.948730,4204.871582,4201.922852,4194.487305,4186.282227,4202.436035,4196.794922,4199.871582,4233.589844,4232.820313,4240.897461,4219.615234,3469.000000,2.000000,,,,0.000000,4.000000,4.000000,4.000000,4.000000,4.000000,4.000000,4.000000,4.000000,4.000000,4.000000,4.000000,4.000000,4.000000,4.000000,100.000000,,,,,,,,,,,,,,,,,,,,,,,,,,,,,,,,,,,,,,,,,,,,,,,,,,,,,,,,,,,,,,,,,,,,,,,,,,,,,,,,,,,,,,,,,,,,,,,,,,,,,,,,,,,,,,,,,
1606524536.281032,115.000000,0.000000,4210.769043,4192.051270,4217.692383,4208.717773,4200.897461,4199.358887,4184.615234,4199.743652,4196.922852,4195.128418,4221.410156,4223.589844,4230.384766,4219.615234,3530.000000,2.000000,,,,0.000000,4.000000,4.000000,4.000000,4.000000,4.000000,4.000000,4.000000,4.000000,4.000000,4.000000,4.000000,4.000000,4.000000,4.000000,100.000000,,,,,,,,,,,,,,,,,,,,,,,,,,,,,,,,,,,,,,,,,,,,,,,,,,,,,,,,,,,,,,,,,,,,,,,,,,,,,,,,,,,,,,,,,,,,,,,,,,,,,,,,,,,,,,,,,
1606524536.288928,116.000000,0.000000,4209.871582,4195.256348,4216.666504,4212.948730,4187.692383,4197.692383,4179.230957,4191.538574,4195.512695,4215.128418,4216.666504,4218.333496,4231.025879,4216.794922,3462.000000,2.000000,,,,0.000000,4.000000,4.000000,4.000000,4.000000,4.000000,4.000000,4.000000,4.000000,4.000000,4.000000,4.000000,4.000000,4.000000,4.000000,100.000000,29.000000,0.000000,0.641350,-0.093506,-0.751099,0.125610,0.965835,-0.335454,-0.154788,-35.440605,-119.032578,7.028306,,,,,,,,,,,,,,,,,,,,,,,,,,,,,,,,,,,,,,,,,,,,,,,,,,,,,,,,,,,,,,,,,,,,,,,,,,,,,,,,,,,,,,,,,,,,,,,,,,,,,
1606524536.296824,117.000000,0.000000,4203.461426,4202.051270,4212.307617,4203.974121,4178.077148,4196.666504,4177.436035,4181.538574,4186.025879,4219.230957,4218.333496,4219.358887,4228.205078,4210.128418,3220.000000,2.000000,,,,0.000000,4.000000,4.000000,4.000000,4.000000,4.000000,4.000000,4.000000,4.000000,4.000000,4.000000,4.000000,4.000000,4.000000,4.000000,100.000000,,,,,,,,,,,,,,,,,,,,,,,,,,,,,,,,,,,,,,,,,,,,,,,,,,,,,,,,,,,,,,,,,,,,,,,,,,,,,,,,,,,,,,,,,,,,,,,,,,,,,,,,,,,,,,,,,
1606524536.304719,118.000000,0.000000,4202.820313,4202.563965,4211.282227,4205.384766,4190.769043,4202.820313,4183.333496,4190.512695,4193.333496,4217.563965,4218.589844,4215.769043,4225.000000,4213.077148,3469.000000,2.000000,,,,0.000000,4.000000,4.000000,4.000000,4.000000,4.000000,4.000000,4.000000,4.000000,4.000000,4.000000,4.000000,4.000000,4.000000,4.000000,100.000000,,,,,,,,,,,,,,,,,,,,,,,,,,,,,,,,,,,,,,,,,,,,,,,,,,,,,,,,,,,,,,,,,,,,,,,,,,,,,,,,,,,,,,,,,,,,,,,,,,,,,,,,,,,,,,,,,
1606524536.312515,119.000000,0.000000,4209.871582,4203.461426,4213.333496,4216.538574,4198.589844,4203.205078,4187.948730,4200.897461,4207.820313,4222.820313,4224.871582,4217.563965,4234.358887,4217.692383,3530.000000,2.000000,,,,0.000000,4.000000,4.000000,4.000000,4.000000,4.000000,4.000000,4.000000,4.000000,4.000000,4.000000,4.000000,4.000000,4.000000,4.000000,100.000000,,,,,,,,,,,,,,,,,,,,,,,,,,,,,,,,,,,,,,,,,,,,,,,,,,,,,,,,,,,,,,,,,,,,,,,,,,,,,,,,,,,,,,,,,,,,,,,,,,,,,,,,,,,,,,,,,
1606524536.320211,120.000000,0.000000,4204.102539,4199.871582,4207.692383,4208.589844,4191.666504,4199.487305,4181.282227,4190.384766,4196.410156,4220.641113,4226.410156,4216.410156,4234.871582,4207.820313,3462.000000,2.000000,,,,0.000000,4.000000,4.000000,4.000000,4.000000,4.000000,4.000000,4.000000,4.000000,4.000000,4.000000,4.000000,4.000000,4.000000,4.000000,100.000000,30.000000,0.000000,0.641134,-0.092773,-0.751282,0.126160,0.955581,-0.328618,-0.152346,-37.384605,-119.929810,7.177844,,,,,,,,,,,,,,,,,,,,,,,,,,,,,,,,,,,,,,,,,,,,,,,,,,,,,,,,,,,,,,,,,,,,,,,,,,,,,,,,,,,,,,,,,,,,,,,,,,,,,
1606524536.327907,121.000000,0.000000,4191.153809,4188.717773,4197.948730,4191.410156,4186.410156,4201.025879,4180.384766,4180.897461,4188.205078,4207.563965,4211.794922,4203.077148,4221.410156,4197.692383,3220.000000,2.000000,,,,0.000000,4.000000,4.000000,4.000000,4.000000,4.000000,4.000000,4.000000,4.000000,4.000000,4.000000,4.000000,4.000000,4.000000,4.000000,100.000000,,,,,,,,,,,,,,,,,,,,,,,,,,,,,,,,,,,,,,,,,,,,,,,,,,,,,,,,,,,,,,,,,,,,,,,,,,,,,,,,,,,,,,,,,,,,,,,,,,,,,,,,,,,,,,,,,
1606524536.335603,122.000000,0.000000,4187.179688,4184.871582,4192.563965,4193.077148,4177.436035,4197.948730,4185.897461,4185.897461,4196.794922,4192.948730,4199.358887,4196.025879,4213.846191,4196.410156,3469.000000,2.000000,,,,0.000000,4.000000,4.000000,4.000000,4.000000,4.000000,4.000000,4.000000,4.000000,4.000000,4.000000,4.000000,4.000000,4.000000,4.000000,100.000000,,,,,,,,,,,,,,,,,,,,,,,,,,,,,,,,,,,,,,,,,,,,,,,,,,,,,,,,,,,,,,,,,,,,,,,,,,,,,,,,,,,,,,,,,,,,,,,,,,,,,,,,,,,,,,,,,
1606524536.343598,123.000000,0.000000,4184.615234,4189.358887,4189.615234,4199.230957,4171.153809,4189.230957,4176.025879,4187.051270,4190.897461,4183.205078,4198.461426,4197.051270,4216.794922,4193.077148,3530.000000,2.000000,,,,0.000000,4.000000,4.000000,4.000000,4.000000,4.000000,4.000000,4.000000,4.000000,4.000000,4.000000,4.000000,4.000000,4.000000,4.000000,100.000000,,,,,,,,,,,,,,,,,,,,,,,,,,,,,,,,,,,,,,,,,,,,,,,,,,,,,,,,,,,,,,,,,,,,,,,,,,,,,,,,,,,,,,,,,,,,,,,,,,,,,,,,,,,,,,,,,
1606524536.351494,124.000000,0.000000,4184.743652,4195.000000,4193.846191,4192.948730,4184.487305,4190.384766,4168.974121,4176.153809,4177.563965,4182.436035,4200.512695,4197.692383,4219.230957,4192.563965,3462.000000,2.000000,,,,0.000000,4.000000,4.000000,4.000000,4.000000,4.000000,4.000000,4.000000,4.000000,4.000000,4.000000,4.000000,4.000000,4.000000,4.000000,100.000000,31.000000,0.000000,0.640745,-0.091736,-0.751587,0.127075,0.959487,-0.319341,-0.165042,-36.038757,-119.182114,7.626459,,,,,,,,,,,,,,,,,,,,,,,,,,,,,,,,,,,,,,,,,,,,,,,,,,,,,,,,,,,,,,,,,,,,,,,,,,,,,,,,,,,,,,,,,,,,,,,,,,,,,
1606524536.359390,125.000000,0.000000,4186.410156,4192.692383,4200.769043,4183.846191,4192.179688,4198.717773,4180.769043,4168.846191,4180.769043,4193.974121,4198.846191,4197.436035,4217.179688,4193.077148,3220.000000,2.000000,,,,0.000000,4.000000,4.000000,4.000000,4.000000,4.000000,4.000000,4.000000,4.000000,4.000000,4.000000,4.000000,4.000000,4.000000,4.000000,100.000000,,,,,,,,,,,,,,,,,,,,,,,,,,,,,,,,,,,,,,,,,,,,,,,,,,,,,,,,,,,,,,,,,,,,,,,,,,,,,,,,,,,,,,,,,,,,,,,,,,,,,,,,,,,,,,,,,
1606524536.367286,126.000000,0.000000,4184.871582,4184.615234,4197.307617,4183.077148,4182.051270,4198.974121,4183.974121,4167.307617,4187.051270,4204.358887,4196.794922,4195.128418,4220.256348,4187.436035,3469.000000,2.000000,,,,0.000000,4.000000,4.000000,4.000000,4.000000,4.000000,4.000000,4.000000,4.000000,4.000000,4.000000,4.000000,4.000000,4.000000,4.000000,100.000000,,,,,,,,,,,,,,,,,,,,,,,,,,,,,,,,,,,,,,,,,,,,,,,,,,,,,,,,,,,,,,,,,,,,,,,,,,,,,,,,,,,,,,,,,,,,,,,,,,,,,,,,,,,,,,,,,
1606524536.375081,127.000000,0.000000,4191.794922,4192.307617,4197.051270,4194.102539,4191.794922,4198.974121,4179.230957,4176.153809,4187.692383,4203.846191,4208.461426,4203.846191,4231.922852,4195.000000,51.000000,2.000000,,,,0.000000,4.000000,4.000000,4.000000,4.000000,4.000000,4.000000,4.000000,4.000000,4.000000,4.000000,4.000000,4.000000,4.000000,4.000000,100.000000,,,,,,,,,,,,,,,,,,,,,,,,,,,,,,,,,,,,,,,,,,,,5.180159,1.969859,0.950508,0.498300,0.446344,6.027922,3.260190,1.106329,0.507289,0.657636,5.365185,1.321320,0.736881,0.610246,0.463156,3.189658,0.827579,0.894545,0.381738,0.758016,2.436815,0.357304,0.407757,1.214403,0.866005,0.438757,0.206608,0.371824,0.456209,0.263862,1.185367,0.447977,0.838187,0.800021,0.473370,2.232361,2.029894,1.356464,0.941682,0.690457,0.823439,0.542150,0.635724,0.662911,0.794129,2.218886,1.211429,1.896312,1.888934,2.011750,7.839698,2.271752,0.773134,0.456373,0.683622,4.178481,1.146673,0.470392,0.506767,0.505329,14.139607,5.150877,1.264796,0.634322,0.674313,8.032452,3.666382,1.085817,0.693610,0.670350
1606524536.382977,0.000000,0.000000,4199.871582,4200.512695,4201.538574,4203.333496,4202.948730,4202.948730,4183.205078,4182.563965,4188.205078,4186.922852,4216.025879,4215.256348,4237.179688,4208.205078,3339.000000,2.000000,,,,0.000000,4.000000,4.000000,4.000000,4.000000,4.000000,4.000000,4.000000,4.000000,4.000000,4.000000,4.000000,4.000000,4.000000,4.000000,100.000000,0.000000,0.000000,0.640580,-0.091370,-0.751648,0.127808,0.965835,-0.338872,-0.152834,-37.534142,-118.284889,6.579690,,,,,,,,,,,,,,,,,,,,,,,,,,,,,,,,,,,,,,,,,,,,,,,,,,,,,,,,,,,,,,,,,,,,,,,,,,,,,,,,,,,,,,,,,,,,,,,,,,,,,
1606524536.390873,1.000000,0.000000,4198.077148,4190.641113,4195.512695,4197.692383,4190.256348,4199.102539,4180.769043,4172.436035,4185.128418,4176.282227,4204.615234,4211.153809,4229.615234,4201.538574,3539.000000,2.000000,,,,0.000000,4.000000,4.000000,4.000000,4.000000,4.000000,4.000000,4.000000,4.000000,4.000000,4.000000,4.000000,4.000000,4.000000,4.000000,100.000000,,,,,,,,,,,,,,,,,,,,,,,,,,,,,,,,,,,,,,,,,,,,,,,,,,,,,,,,,,,,,,,,,,,,,,,,,,,,,,,,,,,,,,,,,,,,,,,,,,,,,,,,,,,,,,,,,
1606524536.398768,2.000000,0.000000,4200.512695,4193.205078,4197.051270,4197.051270,4188.205078,4200.000000,4178.974121,4175.000000,4189.102539,4206.410156,4209.871582,4212.948730,4230.769043,4200.897461,3247.000000,2.000000,,,,0.000000,4.000000,4.000000,4.000000,4.000000,4.000000,4.000000,4.000000,4.000000,4.000000,4.000000,4.000000,4.000000,4.000000,4.000000,100.000000,,,,,,,,,,,,,,,,,,,,,,,,,,,,,,,,,,,,,,,,,,,,,,,,,,,,,,,,,,,,,,,,,,,,,,,,,,,,,,,,,,,,,,,,,,,,,,,,,,,,,,,,,,,,,,,,,
1606524536.406764,3.000000,0.000000,4202.692383,4203.846191,4200.641113,4204.230957,4187.820313,4203.974121,4182.179688,4186.666504,4194.230957,4231.025879,4221.410156,4217.051270,4236.666504,4211.282227,3564.000000,2.000000,,,,0.000000,4.000000,4.000000,4.000000,4.000000,4.000000,4.000000,4.000000,4.000000,4.000000,4.000000,4.000000,4.000000,4.000000,4.000000,100.000000,,,,,,,,,,,,,,,,,,,,,,,,,,,,,,,,,,,,,,,,,,,,,,,,,,,,,,,,,,,,,,,,,,,,,,,,,,,,,,,,,,,,,,,,,,,,,,,,,,,,,,,,,,,,,,,,,
1606524536.414660,4.000000,0.000000,4193.333496,4197.179688,4192.436035,4195.256348,4178.589844,4194.230957,4176.666504,4181.153809,4186.794922,4210.512695,4206.922852,4203.077148,4230.512695,4203.717773,3547.000000,2.000000,,,,0.000000,4.000000,4.000000,4.000000,4.000000,4.000000,4.000000,4.000000,4.000000,4.000000,4.000000,4.000000,4.000000,4.000000,4.000000,100.000000,1.000000,0.000000,0.640547,-0.091431,-0.751648,0.127930,0.957534,-0.342779,-0.167483,-35.291065,-118.733498,7.626459,,,,,,,,,,,,,,,,,,,,,,,,,,,,,,,,,,,,,,,,,,,,,,,,,,,,,,,,,,,,,,,,,,,,,,,,,,,,,,,,,,,,,,,,,,,,,,,,,,,,,
1606524536.422555,5.000000,0.000000,4194.358887,4201.666504,4195.769043,4190.256348,4188.333496,4190.641113,4170.897461,4177.179688,4187.692383,4195.000000,4201.410156,4198.077148,4230.641113,4196.922852,2606.000000,2.000000,,,,0.000000,4.000000,4.000000,4.000000,4.000000,4.000000,4.000000,4.000000,4.000000,4.000000,4.000000,4.000000,4.000000,4.000000,4.000000,100.000000,,,,,,,,,,,,,,,,,,,,,,,,,,,,,,,,,,,,,,,,,,,,,,,,,,,,,,,,,,,,,,,,,,,,,,,,,,,,,,,,,,,,,,,,,,,,,,,,,,,,,,,,,,,,,,,,,
1606524536.430451,6.000000,0.000000,4202.692383,4211.410156,4207.307617,4201.538574,4202.948730,4201.025879,4179.615234,4187.436035,4199.871582,4203.717773,4216.666504,4208.461426,4232.179688,4203.077148,3201.000000,2.000000,,,,0.000000,4.000000,4.000000,4.000000,4.000000,4.000000,4.000000,4.000000,4.000000,4.000000,4.000000,4.000000,4.000000,4.000000,4.000000,100.000000,,,,,,,,,,,,,,,,,,,,,,,,,,,,,,,,,,,,,,,,,,,,,,,,,,,,,,,,,,,,,,,,,,,,,,,,,,,,,,,,,,,,,,,,,,,,,,,,,,,,,,,,,,,,,,,,,
1606524536.438447,7.000000,0.000000,4196.410156,4199.615234,4203.461426,4198.077148,4192.948730,4205.512695,4183.589844,4187.307617,4198.333496,4201.794922,4215.384766,4204.102539,4224.102539,4200.641113,3357.000000,2.000000,,,,0.000000,4.000000,4.000000,4.000000,4.000000,4.000000,4.000000,4.000000,4.000000,4.000000,4.000000,4.000000,4.000000,4.000000,4.000000,100.000000,,,,,,,,,,,,,,,,,,,,,,,,,,,,,,,,,,,,,,,,,,,,,,,,,,,,,,,,,,,,,,,,,,,,,,,,,,,,,,,,,,,,,,,,,,,,,,,,,,,,,,,,,,,,,,,,,
1606524536.446343,8.000000,0.000000,4195.769043,4203.333496,4195.641113,4187.436035,4187.820313,4199.358887,4173.846191,4184.615234,4187.948730,4199.871582,4206.410156,4196.153809,4228.974121,4198.846191,3292.000000,2.000000,,,,0.000000,4.000000,4.000000,4.000000,4.000000,4.000000,4.000000,4.000000,4.000000,4.000000,4.000000,4.000000,4.000000,4.000000,4.000000,100.000000,2.000000,0.000000,0.640184,-0.091003,-0.751831,0.128967,0.976089,-0.345708,-0.162112,-36.038757,-119.929810,7.925536,,,,,,,,,,,,,,,,,,,,,,,,,,,,,,,,,,,,,,,,,,,,,,,,,,,,,,,,,,,,,,,,,,,,,,,,,,,,,,,,,,,,,,,,,,,,,,,,,,,,,
1606524536.454038,9.000000,0.000000,4197.948730,4219.358887,4193.077148,4187.820313,4184.230957,4188.333496,4166.922852,4182.307617,4184.487305,4206.794922,4205.384766,4198.717773,4236.025879,4204.230957,3588.000000,2.000000,,,,0.000000,4.000000,4.000000,4.000000,4.000000,4.000000,4.000000,4.000000,4.000000,4.000000,4.000000,4.000000,4.000000,4.000000,4.000000,100.000000,,,,,,,,,,,,,,,,,,,,,,,,,,,,,,,,,,,,,,,,,,,,,,,,,,,,,,,,,,,,,,,,,,,,,,,,,,,,,,,,,,,,,,,,,,,,,,,,,,,,,,,,,,,,,,,,,
1606524536.461734,10.000000,0.000000,4190.512695,4210.000000,4191.538574,4191.666504,4174.487305,4183.717773,4168.974121,4169.358887,4183.077148,4199.743652,4199.615234,4198.077148,4222.179688,4201.410156,3469.000000,2.000000,,,,0.000000,4.000000,4.000000,4.000000,4.000000,4.000000,4.000000,4.000000,4.000000,4.000000,4.000000,4.000000,4.000000,4.000000,4.000000,100.000000,,,,,,,,,,,,,,,,,,,,,,,,,,,,,,,,,,,,,,,,,,,,,,,,,,,,,,,,,,,,,,,,,,,,,,,,,,,,,,,,,,,,,,,,,,,,,,,,,,,,,,,,,,,,,,,,,
1606524536.469530,11.000000,0.000000,4192.051270,4199.743652,4199.230957,4193.717773,4188.589844,4195.384766,4176.794922,4172.307617,4185.256348,4196.922852,4201.538574,4198.461426,4214.743652,4200.641113,3534.000000,2.000000,,,,0.000000,4.000000,4.000000,4.000000,4.000000,4.000000,4.000000,4.000000,4.000000,4.000000,4.000000,4.000000,4.000000,4.000000,4.000000,100.000000,,,,,,,,,,,,,,,,,,,,,,,,,,,,,,,,,,,,,,,,,,,,,,,,,,,,,,,,,,,,,,,,,,,,,,,,,,,,,,,,,,,,,,,,,,,,,,,,,,,,,,,,,,,,,,,,,
1606524536.477226,12.000000,0.000000,4195.641113,4202.692383,4203.333496,4191.666504,4198.717773,4202.179688,4173.333496,4180.897461,4187.051270,4212.820313,4207.692383,4200.641113,4221.666504,4202.563965,3465.000000,2.000000,,,,0.000000,4.000000,4.000000,4.000000,4.000000,4.000000,4.000000,4.000000,4.000000,4.000000,4.000000,4.000000,4.000000,4.000000,4.000000,100.000000,3.000000,0.000000,0.639913,-0.090515,-0.751953,0.129944,0.960952,-0.357427,-0.169436,-35.141529,-119.331657,7.327382,,,,,,,,,,,,,,,,,,,,,,,,,,,,,,,,,,,,,,,,,,,,,,,,,,,,,,,,,,,,,,,,,,,,,,,,,,,,,,,,,,,,,,,,,,,,,,,,,,,,,
1606524536.484922,13.000000,0.000000,4193.846191,4202.179688,4200.641113,4192.948730,4187.820313,4197.692383,4169.615234,4176.794922,4185.897461,4205.641113,4206.538574,4202.692383,4221.282227,4203.205078,3219.000000,2.000000,,,,0.000000,4.000000,4.000000,4.000000,4.000000,4.000000,4.000000,4.000000,4.000000,4.000000,4.000000,4.000000,4.000000,4.000000,4.000000,100.000000,,,,,,,,,,,,,,,,,,,,,,,,,,,,,,,,,,,,,,,,,,,,,,,,,,,,,,,,,,,,,,,,,,,,,,,,,,,,,,,,,,,,,,,,,,,,,,,,,,,,,,,,,,,,,,,,,
1606524536.492618,14.000000,0.000000,4197.436035,4201.922852,4201.922852,4201.282227,4183.077148,4197.948730,4178.077148,4177.436035,4192.051270,4186.410156,4207.563965,4205.641113,4218.077148,4206.922852,3469.000000,2.000000,,,,0.000000,4.000000,4.000000,4.000000,4.000000,4.000000,4.000000,4.000000,4.000000,4.000000,4.000000,4.000000,4.000000,4.000000,4.000000,100.000000,,,,,,,,,,,,,,,,,,,,,,,,,,,,,,,,,,,,,,,,,,,,,,,,,,,,,,,,,,,,,,,,,,,,,,,,,,,,,,,,,,,,,,,,,,,,,,,,,,,,,,,,,,,,,,,,,
1606524536.500414,15.000000,0.000000,4196.794922,4201.153809,4204.615234,4202.692383,4186.410156,4201.153809,4187.051270,4190.512695,4203.974121,4206.025879,4213.846191,4204.230957,4219.358887,4206.025879,3534.000000,2.000000,,,,0.000000,4.000000,4.000000,4.000000,4.000000,4.000000,4.000000,4.000000,4.000000,4.000000,4.000000,4.000000,4.000000,4.000000,4.000000,100.000000,,,,,,,,,,,,,,,,,,,,,,,,,,,,,,,,,,,,,,,,,,,,6.063025,2.468262,1.142249,0.585760,0.433531,7.147492,4.664246,1.453475,0.562188,0.619429,5.714365,1.414383,0.800335,0.700142,0.432504,2.934477,0.966363,0.992865,0.420598,0.738930,2.160193,0.312205,0.408115,1.322539,0.776360,0.499297,0.210393,0.328350,0.462547,0.269206,1.328524,0.488229,0.972947,0.828117,0.481116,2.745415,2.328743,1.449222,1.016201,0.672708,0.812042,0.643184,0.633855,0.724029,0.761840,2.084315,1.164224,1.840824,1.866020,1.769125,8.539404,2.993960,1.047831,0.555394,0.634538,4.593709,1.328311,0.640643,0.587201,0.458159,17.488014,7.020968,1.927270,0.799381,0.578858,9.343838,4.883124,1.620359,0.819769,0.614517
1606524536.508110,16.000000,0.000000,4186.410156,4192.307617,4204.871582,4198.461426,4188.717773,4201.666504,4187.948730,4197.948730,4205.128418,4228.589844,4215.512695,4201.794922,4218.589844,4202.179688,0.000000,2.000000,,,,0.000000,4.000000,4.000000,4.000000,4.000000,4.000000,4.000000,4.000000,4.000000,4.000000,4.000000,4.000000,4.000000,4.000000,4.000000,100.000000,4.000000,0.000000,0.639737,-0.090942,-0.751892,0.130859,0.976089,-0.362799,-0.154788,-36.038757,-119.481194,7.925536,,,,,,,,,,,,,,,,,,,,,,,,,,,,,,,,,,,,,,,,,,,,,,,,,,,,,,,,,,,,,,,,,,,,,,,,,,,,,,,,,,,,,,,,,,,,,,,,,,,,,
1606524536.515806,17.000000,0.000000,4183.461426,4184.230957,4195.897461,4194.487305,4185.384766,4195.128418,4181.794922,4191.922852,4193.205078,4216.794922,4207.307617,4202.820313,4212.948730,4197.820313,0.000000,2.000000,,,,0.000000,4.000000,4.000000,4.000000,4.000000,4.000000,4.000000,4.000000,4.000000,4.000000,4.000000,4.000000,4.000000,4.000000,4.000000,100.000000,,,,,,,,,,,,,,,,,,,,,,,,,,,,,,,,,,,,,,,,,,,,,,,,,,,,,,,,,,,,,,,,,,,,,,,,,,,,,,,,,,,,,,,,,,,,,,,,,,,,,,,,,,,,,,,,,
1606524536.523501,18.000000,0.000000,4183.205078,4182.692383,4182.563965,4187.307617,4182.307617,4191.282227,4182.307617,4185.000000,4186.025879,4210.128418,4199.871582,4199.871582,4206.666504,4188.461426,0.000000,2.000000,,,,0.000000,4.000000,4.000000,4.000000,4.000000,4.000000,4.000000,4.000000,4.000000,4.000000,4.000000,4.000000,4.000000,4.000000,4.000000,100.000000,,,,,,,,,,,,,,,,,,,,,,,,,,,,,,,,,,,,,,,,,,,,,,,,,,,,,,,,,,,,,,,,,,,,,,,,,,,,,,,,,,,,,,,,,,,,,,,,,,,,,,,,,,,,,,,,,
1606524536.531297,19.000000,0.000000,4174.871582,4182.563965,4180.897461,4184.743652,4188.077148,4199.358887,4189.743652,4185.897461,4185.384766,4207.051270,4195.641113,4189.102539,4201.794922,4179.358887,0.000000,2.000000,,,,0.000000,4.000000,4.000000,4.000000,4.000000,4.000000,4.000000,4.000000,4.000000,4.000000,4.000000,4.000000,4.000000,4.000000,4.000000,100.000000,,,,,,,,,,,,,,,,,,,,,,,,,,,,,,,,,,,,,,,,,,,,,,,,,,,,,,,,,,,,,,,,,,,,,,,,,,,,,,,,,,,,,,,,,,,,,,,,,,,,,,,,,,,,,,,,,
1606524536.538993,20.000000,0.000000,4169.615234,4179.487305,4182.563965,4182.307617,4183.333496,4202.692383,4192.692383,4193.589844,4184.230957,4177.692383,4191.410156,4184.230957,4199.743652,4179.102539,0.000000,2.000000,,,,0.000000,4.000000,4.000000,4.000000,4.000000,4.000000,4.000000,4.000000,4.000000,4.000000,4.000000,4.000000,4.000000,4.000000,4.000000,100.000000,5.000000,0.000000,0.639595,-0.091064,-0.751892,0.131470,0.970230,-0.358892,-0.155764,-36.935989,-119.929810,7.626459,,,,,,,,,,,,,,,,,,,,,,,,,,,,,,,,,,,,,,,,,,,,,,,,,,,,,,,,,,,,,,,,,,,,,,,,,,,,,,,,,,,,,,,,,,,,,,,,,,,,,
1606524536.546689,21.000000,0.000000,4175.512695,4178.974121,4179.230957,4177.563965,4169.615234,4195.769043,4187.179688,4198.846191,4189.358887,4179.615234,4191.282227,4190.641113,4203.717773,4187.563965,0.000000,2.000000,,,,0.000000,4.000000,4.000000,4.000000,4.000000,4.000000,4.000000,4.000000,4.000000,4.000000,4.000000,4.000000,4.000000,4.000000,4.000000,100.000000,,,,,,,,,,,,,,,,,,,,,,,,,,,,,,,,,,,,,,,,,,,,,,,,,,,,,,,,,,,,,,,,,,,,,,,,,,,,,,,,,,,,,,,,,,,,,,,,,,,,,,,,,,,,,,,,,
1606524536.554585,22.000000,0.000000,4192.820313,4190.128418,4188.589844,4189.615234,4180.128418,4195.512695,4184.230957,4202.563965,4202.179688,4215.256348,4201.153809,4200.641113,4216.025879,4198.846191,0.000000,2.000000,,,,0.000000,4.000000,4.000000,4.000000,4.000000,4.000000,4.000000,4.000000,4.000000,4.000000,4.000000,4.000000,4.000000,4.000000,4.000000,100.000000,,,,,,,,,,,,,,,,,,,,,,,,,,,,,,,,,,,,,,,,,,,,,,,,,,,,,,,,,,,,,,,,,,,,,,,,,,,,,,,,,,,,,,,,,,,,,,,,,,,,,,,,,,,,,,,,,
