title:Parker_Stroop_3, start timestamp:1607717717.756915, stop timestamp:1607717779.386462, headset type:EPOCPLUS, headset serial:4A2C14BB, headset firmware:634, channels:120, sampling rate:eeg_128;mot_32;pow_8, samples:7907      , version:2.1, cqMode:0
Timestamp,EEG.Counter,EEG.Interpolated,EEG.AF3,EEG.F7,EEG.F3,EEG.FC5,EEG.T7,EEG.P7,EEG.O1,EEG.O2,EEG.P8,EEG.T8,EEG.FC6,EEG.F4,EEG.F8,EEG.AF4,EEG.RawCq,EEG.Battery,MarkerIndex,MarkerType,MarkerValueInt,EEG.MarkerHardware,CQ.AF3,CQ.F7,CQ.F3,CQ.FC5,CQ.T7,CQ.P7,CQ.O1,CQ.O2,CQ.P8,CQ.T8,CQ.FC6,CQ.F4,CQ.F8,CQ.AF4,CQ.Overall,MOT.CounterMems,MOT.InterpolatedMems,MOT.Q0,MOT.Q1,MOT.Q2,MOT.Q3,MOT.AccX,MOT.AccY,MOT.AccZ,MOT.MagX,MOT.MagY,MOT.MagZ,POW.AF3.Theta,POW.AF3.Alpha,POW.AF3.BetaL,POW.AF3.BetaH,POW.AF3.Gamma,POW.F7.Theta,POW.F7.Alpha,POW.F7.BetaL,POW.F7.BetaH,POW.F7.Gamma,POW.F3.Theta,POW.F3.Alpha,POW.F3.BetaL,POW.F3.BetaH,POW.F3.Gamma,POW.FC5.Theta,POW.FC5.Alpha,POW.FC5.BetaL,POW.FC5.BetaH,POW.FC5.Gamma,POW.T7.Theta,POW.T7.Alpha,POW.T7.BetaL,POW.T7.BetaH,POW.T7.Gamma,POW.P7.Theta,POW.P7.Alpha,POW.P7.BetaL,POW.P7.BetaH,POW.P7.Gamma,POW.O1.Theta,POW.O1.Alpha,POW.O1.BetaL,POW.O1.BetaH,POW.O1.Gamma,POW.O2.Theta,POW.O2.Alpha,POW.O2.BetaL,POW.O2.BetaH,POW.O2.Gamma,POW.P8.Theta,POW.P8.Alpha,POW.P8.BetaL,POW.P8.BetaH,POW.P8.Gamma,POW.T8.Theta,POW.T8.Alpha,POW.T8.BetaL,POW.T8.BetaH,POW.T8.Gamma,POW.FC6.Theta,POW.FC6.Alpha,POW.FC6.BetaL,POW.FC6.BetaH,POW.FC6.Gamma,POW.F4.Theta,POW.F4.Alpha,POW.F4.BetaL,POW.F4.BetaH,POW.F4.Gamma,POW.F8.Theta,POW.F8.Alpha,POW.F8.BetaL,POW.F8.BetaH,POW.F8.Gamma,POW.AF4.Theta,POW.AF4.Alpha,POW.AF4.BetaL,POW.AF4.BetaH,POW.AF4.Gamma
1607717717.756915,5.000000,0.000000,4183.717773,4186.666504,4188.589844,4149.871582,4188.077148,4190.256348,4188.077148,4192.948730,4199.743652,4204.358887,4209.102539,4177.820313,4216.025879,4197.436035,3487.000000,4.000000,,,,0.000000,4.000000,4.000000,4.000000,4.000000,4.000000,4.000000,4.000000,4.000000,4.000000,4.000000,4.000000,4.000000,4.000000,4.000000,100.000000,,,,,,,,,,,,,,,,,,,,,,,,,,,,,,,,,,,,,,,,,,,,,,,,,,,,,,,,,,,,,,,,,,,,,,,,,,,,,,,,,,
1607717717.764611,6.000000,0.000000,4169.358887,4175.512695,4173.589844,4196.282227,4185.256348,4181.922852,4183.717773,4183.205078,4189.102539,4196.538574,4183.717773,4172.436035,4203.461426,4188.205078,3427.000000,4.000000,,,,0.000000,4.000000,4.000000,4.000000,4.000000,4.000000,4.000000,4.000000,4.000000,4.000000,4.000000,4.000000,4.000000,4.000000,4.000000,100.000000,,,,,,,,,,,,,,,,,,,,,,,,,,,,,,,,,,,,,,,,,,,,,,,,,,,,,,,,,,,,,,,,,,,,,,,,,,,,,,,,,,
1607717717.772407,7.000000,0.000000,4152.563965,4166.025879,4165.000000,4239.487305,4180.128418,4171.666504,4178.333496,4187.692383,4186.922852,4189.743652,4169.487305,4168.589844,4192.436035,4182.820313,3524.000000,4.000000,,,,0.000000,4.000000,4.000000,4.000000,4.000000,4.000000,4.000000,4.000000,4.000000,4.000000,4.000000,4.000000,4.000000,4.000000,4.000000,100.000000,,,,,,,,,,,,,,,,,,,,,,,,,,,,,,,,,,,,,,,,,,,,,,,,,,,,,,,,,,,,,,,,,,,,,,,,,,,,,,,,,,
1607717717.780105,8.000000,0.000000,4133.077148,4157.179688,4155.897461,4216.282227,4167.948730,4177.820313,4173.077148,4184.743652,4188.077148,4182.563965,4167.820313,4156.666504,4180.897461,4172.307617,2918.000000,4.000000,,,,0.000000,4.000000,4.000000,4.000000,4.000000,4.000000,4.000000,4.000000,4.000000,4.000000,4.000000,4.000000,4.000000,4.000000,4.000000,100.000000,2.000000,0.000000,0.684404,-0.265320,-0.678223,-0.034790,0.962905,-0.325689,-0.061524,-31.253529,-166.137177,-6.430152,4.418231,2.316467,1.293980,1.142882,0.498457,5.100932,2.263252,1.154383,1.258626,0.526184,3.608269,3.162855,0.768080,0.861411,0.425237,3.355412,3.160731,1.907107,1.496007,0.898703,1.624448,1.342374,0.453030,0.582428,0.446464,0.334125,1.485884,0.616002,1.367303,0.958975,0.824623,2.625907,0.859087,0.889814,0.462667,1.920750,2.562018,2.450459,1.292878,0.635603,0.854449,1.919269,1.538997,0.970974,0.466661,1.974319,2.585358,1.823110,1.030866,0.442381,2.938694,2.716094,1.560232,1.306777,0.464625,1.925022,2.100371,0.459105,0.595168,0.250887,2.155875,3.006776,1.585081,1.249842,0.594329,2.472759,1.926283,1.244645,0.905330,0.387555
1607717717.787903,9.000000,0.000000,4130.641113,4151.922852,4148.461426,4206.410156,4167.820313,4185.000000,4171.794922,4174.743652,4184.871582,4183.846191,4167.051270,4149.871582,4175.897461,4163.846191,3380.000000,4.000000,,,,0.000000,4.000000,4.000000,4.000000,4.000000,4.000000,4.000000,4.000000,4.000000,4.000000,4.000000,4.000000,4.000000,4.000000,4.000000,100.000000,,,,,,,,,,,,,,,,,,,,,,,,,,,,,,,,,,,,,,,,,,,,,,,,,,,,,,,,,,,,,,,,,,,,,,,,,,,,,,,,,,
1607717717.795701,10.000000,0.000000,4145.512695,4153.846191,4151.410156,4230.384766,4170.384766,4174.871582,4166.025879,4173.205078,4182.051270,4190.641113,4165.384766,4151.922852,4182.692383,4166.538574,3527.000000,4.000000,,,,0.000000,4.000000,4.000000,4.000000,4.000000,4.000000,4.000000,4.000000,4.000000,4.000000,4.000000,4.000000,4.000000,4.000000,4.000000,100.000000,,,,,,,,,,,,,,,,,,,,,,,,,,,,,,,,,,,,,,,,,,,,,,,,,,,,,,,,,,,,,,,,,,,,,,,,,,,,,,,,,,
1607717717.803499,11.000000,0.000000,4155.128418,4163.205078,4160.000000,4237.820313,4170.897461,4174.743652,4165.897461,4184.358887,4188.589844,4200.769043,4173.974121,4161.794922,4189.230957,4179.743652,3378.000000,4.000000,,,,0.000000,4.000000,4.000000,4.000000,4.000000,4.000000,4.000000,4.000000,4.000000,4.000000,4.000000,4.000000,4.000000,4.000000,4.000000,100.000000,,,,,,,,,,,,,,,,,,,,,,,,,,,,,,,,,,,,,,,,,,,,,,,,,,,,,,,,,,,,,,,,,,,,,,,,,,,,,,,,,,
1607717717.811297,12.000000,0.000000,4158.205078,4169.358887,4168.461426,4235.641113,4179.230957,4186.410156,4176.794922,4193.846191,4194.102539,4201.410156,4181.794922,4167.179688,4186.025879,4184.230957,3509.000000,4.000000,,,,0.000000,4.000000,4.000000,4.000000,4.000000,4.000000,4.000000,4.000000,4.000000,4.000000,4.000000,4.000000,4.000000,4.000000,4.000000,100.000000,3.000000,0.000000,0.684561,-0.266663,-0.677490,-0.035706,0.965835,-0.323247,-0.054688,-31.403067,-167.483017,-5.532921,,,,,,,,,,,,,,,,,,,,,,,,,,,,,,,,,,,,,,,,,,,,,,,,,,,,,,,,,,,,,,,,,,,,,,
1607717717.819095,13.000000,0.000000,4165.897461,4166.922852,4179.615234,4247.563965,4185.769043,4189.743652,4182.436035,4192.179688,4185.128418,4192.436035,4173.205078,4167.948730,4183.717773,4182.179688,2770.000000,4.000000,,,,0.000000,4.000000,4.000000,4.000000,4.000000,4.000000,4.000000,4.000000,4.000000,4.000000,4.000000,4.000000,4.000000,4.000000,4.000000,100.000000,,,,,,,,,,,,,,,,,,,,,,,,,,,,,,,,,,,,,,,,,,,,,,,,,,,,,,,,,,,,,,,,,,,,,,,,,,,,,,,,,,
1607717717.826893,14.000000,0.000000,4175.641113,4168.589844,4187.820313,4267.307617,4187.436035,4196.153809,4185.000000,4193.589844,4181.025879,4197.307617,4170.641113,4178.333496,4192.179688,4193.205078,3527.000000,4.000000,,,,0.000000,4.000000,4.000000,4.000000,4.000000,4.000000,4.000000,4.000000,4.000000,4.000000,4.000000,4.000000,4.000000,4.000000,4.000000,100.000000,,,,,,,,,,,,,,,,,,,,,,,,,,,,,,,,,,,,,,,,,,,,,,,,,,,,,,,,,,,,,,,,,,,,,,,,,,,,,,,,,,
1607717717.834691,15.000000,0.000000,4176.794922,4172.436035,4186.025879,4265.384766,4187.692383,4201.794922,4186.794922,4197.307617,4191.153809,4201.153809,4184.487305,4183.205078,4199.615234,4199.743652,3378.000000,4.000000,,,,0.000000,4.000000,4.000000,4.000000,4.000000,4.000000,4.000000,4.000000,4.000000,4.000000,4.000000,4.000000,4.000000,4.000000,4.000000,100.000000,,,,,,,,,,,,,,,,,,,,,,,,,,,,,,,,,,,,,,,,,,,,,,,,,,,,,,,,,,,,,,,,,,,,,,,,,,,,,,,,,,
1607717717.842489,16.000000,0.000000,4169.871582,4168.589844,4182.307617,4245.641113,4187.179688,4200.256348,4186.538574,4198.717773,4195.512695,4196.025879,4190.512695,4173.077148,4196.282227,4192.692383,0.000000,4.000000,,,,0.000000,4.000000,4.000000,4.000000,4.000000,4.000000,4.000000,4.000000,4.000000,4.000000,4.000000,4.000000,4.000000,4.000000,4.000000,100.000000,4.000000,0.000000,0.684564,-0.268066,-0.676880,-0.036682,0.958999,-0.332525,-0.049805,-29.159990,-166.436249,-4.486153,,,,,,,,,,,,,,,,,,,,,,,,,,,,,,,,,,,,,,,,,,,,,,,,,,,,,,,,,,,,,,,,,,,,,,
1607717717.850187,17.000000,0.000000,4167.563965,4170.128418,4185.897461,4249.102539,4190.512695,4200.769043,4188.589844,4200.256348,4190.512695,4203.846191,4186.410156,4172.820313,4198.205078,4192.820313,0.000000,4.000000,,,,0.000000,4.000000,4.000000,4.000000,4.000000,4.000000,4.000000,4.000000,4.000000,4.000000,4.000000,4.000000,4.000000,4.000000,4.000000,100.000000,,,,,,,,,,,,,,,,,,,,,,,,,,,,,,,,,,,,,,,,,,,,,,,,,,,,,,,,,,,,,,,,,,,,,,,,,,,,,,,,,,
1607717717.857985,18.000000,0.000000,4175.256348,4181.410156,4188.717773,4264.871582,4193.461426,4191.025879,4186.153809,4192.307617,4190.384766,4208.717773,4185.641113,4181.922852,4210.384766,4197.948730,0.000000,4.000000,,,,0.000000,4.000000,4.000000,4.000000,4.000000,4.000000,4.000000,4.000000,4.000000,4.000000,4.000000,4.000000,4.000000,4.000000,4.000000,100.000000,,,,,,,,,,,,,,,,,,,,,,,,,,,,,,,,,,,,,,,,,,,,,,,,,,,,,,,,,,,,,,,,,,,,,,,,,,,,,,,,,,
1607717717.865783,19.000000,0.000000,4181.410156,4183.205078,4186.282227,4255.769043,4191.538574,4189.743652,4182.307617,4185.769043,4196.538574,4205.512695,4189.102539,4179.358887,4213.077148,4196.410156,0.000000,4.000000,,,,0.000000,4.000000,4.000000,4.000000,4.000000,4.000000,4.000000,4.000000,4.000000,4.000000,4.000000,4.000000,4.000000,4.000000,4.000000,100.000000,,,,,,,,,,,,,,,,,,,,,,,,,,,,,,,,,,,,,,,,,,,,,,,,,,,,,,,,,,,,,,,,,,,,,,,,,,,,,,,,,,
1607717717.873581,20.000000,0.000000,4175.128418,4172.692383,4186.282227,4240.641113,4190.000000,4213.077148,4186.922852,4196.794922,4198.077148,4208.589844,4190.384766,4179.871582,4202.307617,4198.205078,0.000000,4.000000,,,,0.000000,4.000000,4.000000,4.000000,4.000000,4.000000,4.000000,4.000000,4.000000,4.000000,4.000000,4.000000,4.000000,4.000000,4.000000,100.000000,5.000000,0.000000,0.684327,-0.268311,-0.677063,-0.035950,0.951675,-0.346685,-0.057130,-30.356298,-166.884872,-7.177844,,,,,,,,,,,,,,,,,,,,,,,,,,,,,,,,,,,,,,,,,,,,,,,,,,,,,,,,,,,,,,,,,,,,,,
1607717717.881379,21.000000,0.000000,4170.641113,4166.025879,4184.615234,4246.922852,4188.205078,4208.974121,4186.666504,4202.563965,4195.000000,4208.077148,4187.307617,4186.410156,4199.102539,4200.256348,0.000000,4.000000,,,,0.000000,4.000000,4.000000,4.000000,4.000000,4.000000,4.000000,4.000000,4.000000,4.000000,4.000000,4.000000,4.000000,4.000000,4.000000,100.000000,,,,,,,,,,,,,,,,,,,,,,,,,,,,,,,,,,,,,,,,,,,,,,,,,,,,,,,,,,,,,,,,,,,,,,,,,,,,,,,,,,
1607717717.889177,22.000000,0.000000,4178.846191,4169.230957,4183.846191,4252.436035,4184.615234,4179.487305,4184.102539,4198.461426,4192.563965,4201.025879,4187.051270,4185.128418,4211.282227,4198.461426,0.000000,4.000000,,,,0.000000,4.000000,4.000000,4.000000,4.000000,4.000000,4.000000,4.000000,4.000000,4.000000,4.000000,4.000000,4.000000,4.000000,4.000000,100.000000,,,,,,,,,,,,,,,,,,,,,,,,,,,,,,,,,,,,,,,,,,,,,,,,,,,,,,,,,,,,,,,,,,,,,,,,,,,,,,,,,,
1607717717.896975,23.000000,0.000000,4185.000000,4167.563965,4187.692383,4243.589844,4185.641113,4180.128418,4195.256348,4210.000000,4193.717773,4200.256348,4189.487305,4185.256348,4216.410156,4198.589844,0.000000,4.000000,,,,0.000000,4.000000,4.000000,4.000000,4.000000,4.000000,4.000000,4.000000,4.000000,4.000000,4.000000,4.000000,4.000000,4.000000,4.000000,100.000000,,,,,,,,,,,,,,,,,,,,,,,,,,,,,,,,,,,,,,,,,,,,,,,,,,,,,,,,,,,,,,,,,,,,,,,,,,,,,,,,,,
1607717717.904773,24.000000,0.000000,4186.025879,4168.717773,4190.769043,4246.410156,4188.717773,4203.461426,4208.461426,4223.205078,4198.717773,4209.871582,4192.692383,4190.256348,4215.000000,4200.000000,0.000000,4.000000,,,,0.000000,4.000000,4.000000,4.000000,4.000000,4.000000,4.000000,4.000000,4.000000,4.000000,4.000000,4.000000,4.000000,4.000000,4.000000,100.000000,6.000000,0.000000,0.683665,-0.267822,-0.678040,-0.033691,0.962417,-0.361334,-0.082521,-30.356298,-166.884872,-7.177844,4.593066,2.431988,1.315089,1.242430,0.444465,5.107600,2.293329,1.143203,1.358510,0.457476,3.457953,3.537292,0.780923,0.903670,0.389726,2.199389,2.105891,1.136584,1.045538,0.610204,1.625092,1.283944,0.424085,0.580248,0.422224,0.397697,1.357732,0.497108,1.272058,0.869570,0.845202,2.794120,0.577334,0.889526,0.377614,2.110685,2.622443,2.405266,1.326754,0.615211,0.939125,1.772354,1.584648,0.913467,0.458534,1.759326,2.248886,1.540571,1.020843,0.430591,2.591209,2.512346,1.613124,1.286001,0.441887,1.899902,2.219222,0.462918,0.577956,0.219309,2.142864,3.057988,1.673731,1.299884,0.547806,2.237281,2.029944,1.182887,0.889179,0.356127
1607717717.912571,25.000000,0.000000,4191.153809,4177.436035,4189.358887,4259.487305,4189.358887,4203.974121,4204.615234,4219.358887,4202.436035,4216.025879,4202.307617,4187.563965,4224.230957,4202.436035,0.000000,4.000000,,,,0.000000,4.000000,4.000000,4.000000,4.000000,4.000000,4.000000,4.000000,4.000000,4.000000,4.000000,4.000000,4.000000,4.000000,4.000000,100.000000,,,,,,,,,,,,,,,,,,,,,,,,,,,,,,,,,,,,,,,,,,,,,,,,,,,,,,,,,,,,,,,,,,,,,,,,,,,,,,,,,,
1607717717.920267,26.000000,0.000000,4187.692383,4172.436035,4183.333496,4250.256348,4187.307617,4187.948730,4189.230957,4211.410156,4200.128418,4204.358887,4207.307617,4182.307617,4227.436035,4198.974121,0.000000,4.000000,,,,0.000000,4.000000,4.000000,4.000000,4.000000,4.000000,4.000000,4.000000,4.000000,4.000000,4.000000,4.000000,4.000000,4.000000,4.000000,100.000000,,,,,,,,,,,,,,,,,,,,,,,,,,,,,,,,,,,,,,,,,,,,,,,,,,,,,,,,,,,,,,,,,,,,,,,,,,,,,,,,,,
1607717717.928063,27.000000,0.000000,4183.589844,4172.051270,4186.282227,4236.538574,4185.000000,4190.897461,4189.230957,4213.461426,4198.461426,4202.051270,4202.179688,4188.974121,4220.000000,4195.000000,0.000000,4.000000,,,,0.000000,4.000000,4.000000,4.000000,4.000000,4.000000,4.000000,4.000000,4.000000,4.000000,4.000000,4.000000,4.000000,4.000000,4.000000,100.000000,,,,,,,,,,,,,,,,,,,,,,,,,,,,,,,,,,,,,,,,,,,,,,,,,,,,,,,,,,,,,,,,,,,,,,,,,,,,,,,,,,
1607717717.935859,28.000000,0.000000,4192.307617,4183.717773,4194.615234,4242.563965,4189.871582,4206.153809,4204.487305,4220.641113,4206.794922,4221.666504,4198.589844,4197.051270,4218.077148,4201.794922,0.000000,4.000000,,,,0.000000,4.000000,4.000000,4.000000,4.000000,4.000000,4.000000,4.000000,4.000000,4.000000,4.000000,4.000000,4.000000,4.000000,4.000000,100.000000,7.000000,0.000000,0.682697,-0.265076,-0.680298,-0.029236,0.951675,-0.389166,-0.095705,-29.608606,-165.688568,-8.374151,,,,,,,,,,,,,,,,,,,,,,,,,,,,,,,,,,,,,,,,,,,,,,,,,,,,,,,,,,,,,,,,,,,,,,
1607717717.943556,29.000000,0.000000,4188.333496,4180.128418,4192.307617,4244.743652,4191.153809,4197.563965,4199.743652,4211.410156,4201.282227,4216.794922,4197.179688,4189.487305,4219.615234,4201.538574,0.000000,4.000000,,,,0.000000,4.000000,4.000000,4.000000,4.000000,4.000000,4.000000,4.000000,4.000000,4.000000,4.000000,4.000000,4.000000,4.000000,4.000000,100.000000,,,,,,,,,,,,,,,,,,,,,,,,,,,,,,,,,,,,,,,,,,,,,,,,,,,,,,,,,,,,,,,,,,,,,,,,,,,,,,,,,,
1607717717.951353,30.000000,0.000000,4168.461426,4167.948730,4180.256348,4233.077148,4179.743652,4182.563965,4180.769043,4188.846191,4186.538574,4189.230957,4187.692383,4173.077148,4207.948730,4185.384766,0.000000,4.000000,,,,0.000000,4.000000,4.000000,4.000000,4.000000,4.000000,4.000000,4.000000,4.000000,4.000000,4.000000,4.000000,4.000000,4.000000,4.000000,100.000000,,,,,,,,,,,,,,,,,,,,,,,,,,,,,,,,,,,,,,,,,,,,,,,,,,,,,,,,,,,,,,,,,,,,,,,,,,,,,,,,,,
1607717717.959150,31.000000,0.000000,4152.692383,4161.666504,4164.230957,4216.538574,4170.641113,4188.205078,4180.384766,4181.922852,4180.384766,4170.256348,4166.794922,4159.358887,4183.846191,4165.641113,0.000000,4.000000,,,,0.000000,4.000000,4.000000,4.000000,4.000000,4.000000,4.000000,4.000000,4.000000,4.000000,4.000000,4.000000,4.000000,4.000000,4.000000,100.000000,,,,,,,,,,,,,,,,,,,,,,,,,,,,,,,,,,,,,,,,,,,,,,,,,,,,,,,,,,,,,,,,,,,,,,,,,,,,,,,,,,
1607717717.966947,32.000000,0.000000,4140.769043,4142.820313,4149.102539,4199.230957,4168.717773,4182.051270,4184.743652,4184.871582,4171.153809,4155.256348,4146.410156,4146.794922,4161.410156,4150.897461,0.000000,4.000000,,,,0.000000,4.000000,4.000000,4.000000,4.000000,4.000000,4.000000,4.000000,4.000000,4.000000,4.000000,4.000000,4.000000,4.000000,4.000000,100.000000,8.000000,0.000000,0.681513,-0.260681,-0.683411,-0.023132,0.977554,-0.390631,-0.098146,-29.608606,-168.380249,-6.131075,,,,,,,,,,,,,,,,,,,,,,,,,,,,,,,,,,,,,,,,,,,,,,,,,,,,,,,,,,,,,,,,,,,,,,
1607717717.974743,33.000000,0.000000,4141.538574,4133.974121,4155.256348,4202.948730,4170.769043,4166.922852,4184.102539,4193.077148,4174.230957,4166.410156,4156.153809,4153.333496,4165.384766,4157.436035,0.000000,4.000000,,,,0.000000,4.000000,4.000000,4.000000,4.000000,4.000000,4.000000,4.000000,4.000000,4.000000,4.000000,4.000000,4.000000,4.000000,4.000000,100.000000,,,,,,,,,,,,,,,,,,,,,,,,,,,,,,,,,,,,,,,,,,,,,,,,,,,,,,,,,,,,,,,,,,,,,,,,,,,,,,,,,,
1607717717.982441,34.000000,0.000000,4165.641113,4165.641113,4180.641113,4227.563965,4187.692383,4187.436035,4202.307617,4213.461426,4198.077148,4202.436035,4183.333496,4179.487305,4189.743652,4185.256348,0.000000,4.000000,,,,0.000000,4.000000,4.000000,4.000000,4.000000,4.000000,4.000000,4.000000,4.000000,4.000000,4.000000,4.000000,4.000000,4.000000,4.000000,100.000000,,,,,,,,,,,,,,,,,,,,,,,,,,,,,,,,,,,,,,,,,,,,,,,,,,,,,,,,,,,,,,,,,,,,,,,,,,,,,,,,,,
1607717717.990239,35.000000,0.000000,4184.358887,4191.282227,4189.358887,4235.000000,4202.179688,4209.871582,4214.358887,4222.051270,4207.051270,4209.487305,4192.179688,4186.538574,4200.128418,4199.102539,0.000000,4.000000,,,,0.000000,4.000000,4.000000,4.000000,4.000000,4.000000,4.000000,4.000000,4.000000,4.000000,4.000000,4.000000,4.000000,4.000000,4.000000,100.000000,,,,,,,,,,,,,,,,,,,,,,,,,,,,,,,,,,,,,,,,,,,,,,,,,,,,,,,,,,,,,,,,,,,,,,,,,,,,,,,,,,
1607717717.998037,36.000000,0.000000,4190.128418,4190.897461,4183.846191,4230.384766,4194.230957,4199.230957,4204.487305,4216.666504,4196.794922,4196.025879,4188.461426,4178.974121,4204.615234,4192.820313,0.000000,4.000000,,,,0.000000,4.000000,4.000000,4.000000,4.000000,4.000000,4.000000,4.000000,4.000000,4.000000,4.000000,4.000000,4.000000,4.000000,4.000000,100.000000,9.000000,0.000000,0.679988,-0.254089,-0.687622,-0.015198,0.969253,-0.380865,-0.106935,-29.758144,-165.539032,-7.028306,,,,,,,,,,,,,,,,,,,,,,,,,,,,,,,,,,,,,,,,,,,,,,,,,,,,,,,,,,,,,,,,,,,,,,
1607717718.005834,37.000000,0.000000,4186.666504,4182.692383,4184.358887,4234.615234,4187.820313,4197.051270,4203.974121,4219.487305,4199.358887,4197.307617,4171.538574,4177.820313,4184.487305,4180.512695,0.000000,4.000000,,,,0.000000,4.000000,4.000000,4.000000,4.000000,4.000000,4.000000,4.000000,4.000000,4.000000,4.000000,4.000000,4.000000,4.000000,4.000000,100.000000,,,,,,,,,,,,,,,,,,,,,,,,,,,,,,,,,,,,,,,,,,,,,,,,,,,,,,,,,,,,,,,,,,,,,,,,,,,,,,,,,,
1607717718.013632,38.000000,0.000000,4168.077148,4178.846191,4182.820313,4239.102539,4192.051270,4207.307617,4204.871582,4222.563965,4204.615234,4200.769043,4154.487305,4179.358887,4147.307617,4170.000000,0.000000,4.000000,,,,0.000000,4.000000,4.000000,4.000000,4.000000,4.000000,4.000000,4.000000,4.000000,4.000000,4.000000,4.000000,4.000000,4.000000,4.000000,100.000000,,,,,,,,,,,,,,,,,,,,,,,,,,,,,,,,,,,,,,,,,,,,,,,,,,,,,,,,,,,,,,,,,,,,,,,,,,,,,,,,,,
1607717718.021430,39.000000,0.000000,4162.179688,4179.487305,4176.153809,4232.563965,4185.641113,4201.794922,4204.743652,4217.820313,4199.487305,4198.717773,4172.948730,4176.794922,4163.846191,4169.743652,0.000000,4.000000,,,,0.000000,4.000000,4.000000,4.000000,4.000000,4.000000,4.000000,4.000000,4.000000,4.000000,4.000000,4.000000,4.000000,4.000000,4.000000,100.000000,,,,,,,,,,,,,,,,,,,,,,,,,,,,,,,,,,,,,,,,,,,,,,,,,,,,,,,,,,,,,,,,,,,,,,,,,,,,,,,,,,
1607717718.029228,40.000000,0.000000,4167.563965,4155.512695,4171.410156,4213.974121,4174.358887,4197.820313,4213.717773,4215.384766,4195.769043,4198.077148,4199.102539,4173.846191,4211.666504,4172.820313,0.000000,4.000000,,,,0.000000,4.000000,4.000000,4.000000,4.000000,4.000000,4.000000,4.000000,4.000000,4.000000,4.000000,4.000000,4.000000,4.000000,4.000000,100.000000,10.000000,0.000000,0.679130,-0.249634,-0.690186,-0.010437,0.961440,-0.331548,-0.101564,-31.253529,-166.137177,-9.121843,4.633973,2.466508,1.387105,1.316325,0.414694,5.183021,2.267748,1.117724,1.429746,0.425525,3.346922,3.763978,0.822646,0.947656,0.360709,2.472366,2.237128,1.136670,1.064183,0.554544,1.683873,1.221564,0.436711,0.613417,0.407822,0.502493,1.209499,0.462008,1.169378,0.818218,0.868964,2.785566,0.471549,0.911041,0.344718,2.156217,2.581333,2.393348,1.381816,0.618628,1.004412,1.575999,1.634619,0.855628,0.471845,1.563732,1.869704,1.362766,0.973578,0.466534,2.355585,2.229346,1.594731,1.262391,0.419285,1.955507,2.239265,0.515282,0.557445,0.204435,2.128680,3.015760,1.721374,1.355829,0.511131,2.233238,2.072233,1.152559,0.876290,0.344259
1607717718.037025,41.000000,0.000000,4154.487305,4105.128418,4166.922852,4193.846191,4171.025879,4196.538574,4197.307617,4206.922852,4194.615234,4204.358887,4198.461426,4172.051270,4225.128418,4171.025879,0.000000,4.000000,,,,0.000000,4.000000,4.000000,4.000000,4.000000,4.000000,4.000000,4.000000,4.000000,4.000000,4.000000,4.000000,4.000000,4.000000,4.000000,100.000000,,,,,,,,,,,,,,,,,,,,,,,,,,,,,,,,,,,,,,,,,,,,,,,,,,,,,,,,,,,,,,,,,,,,,,,,,,,,,,,,,,
1607717718.044723,42.000000,0.000000,4132.307617,4058.589844,4154.743652,4178.461426,4166.794922,4188.589844,4161.922852,4190.769043,4197.179688,4218.589844,4202.436035,4168.717773,4234.358887,4166.666504,0.000000,4.000000,,,,0.000000,4.000000,4.000000,4.000000,4.000000,4.000000,4.000000,4.000000,4.000000,4.000000,4.000000,4.000000,4.000000,4.000000,4.000000,100.000000,,,,,,,,,,,,,,,,,,,,,,,,,,,,,,,,,,,,,,,,,,,,,,,,,,,,,,,,,,,,,,,,,,,,,,,,,,,,,,,,,,
1607717718.052521,43.000000,0.000000,4107.436035,4016.794922,4130.256348,4149.743652,4148.461426,4174.230957,4144.743652,4171.410156,4192.307617,4215.769043,4204.615234,4159.358887,4252.563965,4151.538574,0.000000,4.000000,,,,0.000000,4.000000,4.000000,4.000000,4.000000,4.000000,4.000000,4.000000,4.000000,4.000000,4.000000,4.000000,4.000000,4.000000,4.000000,100.000000,,,,,,,,,,,,,,,,,,,,,,,,,,,,,,,,,,,,,,,,,,,,,,,,,,,,,,,,,,,,,,,,,,,,,,,,,,,,,,,,,,
1607717718.060319,44.000000,0.000000,4078.589844,3965.641113,4107.948730,4116.025879,4125.256348,4150.769043,4137.820313,4154.743652,4177.820313,4194.230957,4183.077148,4146.410156,4247.436035,4130.128418,0.000000,4.000000,,,,0.000000,4.000000,4.000000,4.000000,4.000000,4.000000,4.000000,4.000000,4.000000,4.000000,4.000000,4.000000,4.000000,4.000000,4.000000,100.000000,11.000000,0.000000,0.677106,-0.237061,-0.696655,0.001099,0.960464,-0.263188,-0.096193,-30.356298,-166.884872,-10.617228,,,,,,,,,,,,,,,,,,,,,,,,,,,,,,,,,,,,,,,,,,,,,,,,,,,,,,,,,,,,,,,,,,,,,,
1607717718.068117,45.000000,0.000000,4083.333252,3952.564209,4121.666504,4119.615234,4130.512695,4154.230957,4146.666504,4173.205078,4189.230957,4202.820313,4192.692383,4158.846191,4258.205078,4140.256348,0.000000,4.000000,,,,0.000000,4.000000,4.000000,4.000000,4.000000,4.000000,4.000000,4.000000,4.000000,4.000000,4.000000,4.000000,4.000000,4.000000,4.000000,100.000000,,,,,,,,,,,,,,,,,,,,,,,,,,,,,,,,,,,,,,,,,,,,,,,,,,,,,,,,,,,,,,,,,,,,,,,,,,,,,,,,,,
1607717718.075915,46.000000,0.000000,4119.487305,3991.923096,4155.384766,4153.077148,4160.256348,4196.922852,4181.538574,4214.230957,4216.410156,4240.384766,4231.153809,4187.948730,4291.666504,4171.538574,0.000000,4.000000,,,,0.000000,4.000000,4.000000,4.000000,4.000000,4.000000,4.000000,4.000000,4.000000,4.000000,4.000000,4.000000,4.000000,4.000000,4.000000,100.000000,,,,,,,,,,,,,,,,,,,,,,,,,,,,,,,,,,,,,,,,,,,,,,,,,,,,,,,,,,,,,,,,,,,,,,,,,,,,,,,,,,
1607717718.083713,47.000000,0.000000,4123.589844,4012.051270,4159.102539,4166.794922,4165.512695,4209.743652,4198.077148,4225.384766,4210.384766,4244.615234,4232.179688,4189.743652,4287.692383,4172.051270,0.000000,4.000000,,,,0.000000,4.000000,4.000000,4.000000,4.000000,4.000000,4.000000,4.000000,4.000000,4.000000,4.000000,4.000000,4.000000,4.000000,4.000000,100.000000,,,,,,,,,,,,,,,,,,,,,,,,,,,,,,,,,,,,,,,,,,,,,,,,,,,,,,,,,,,,,,,,,,,,,,,,,,,,,,,,,,
1607717718.091511,48.000000,0.000000,4106.025879,3998.205078,4141.666504,4156.410156,4145.256348,4184.102539,4187.436035,4211.025879,4188.077148,4216.922852,4209.615234,4173.205078,4268.077148,4153.846191,0.000000,4.000000,,,,0.000000,4.000000,4.000000,4.000000,4.000000,4.000000,4.000000,4.000000,4.000000,4.000000,4.000000,4.000000,4.000000,4.000000,4.000000,100.000000,12.000000,0.000000,0.675814,-0.225098,-0.701782,0.010376,0.964370,-0.240726,-0.077150,-29.010452,-166.286713,-10.916305,,,,,,,,,,,,,,,,,,,,,,,,,,,,,,,,,,,,,,,,,,,,,,,,,,,,,,,,,,,,,,,,,,,,,,
1607717718.099309,49.000000,0.000000,4104.358887,3991.794922,4139.102539,4151.410156,4139.102539,4177.820313,4185.897461,4217.436035,4197.563965,4216.025879,4207.307617,4169.102539,4263.077148,4151.794922,0.000000,4.000000,,,,0.000000,4.000000,4.000000,4.000000,4.000000,4.000000,4.000000,4.000000,4.000000,4.000000,4.000000,4.000000,4.000000,4.000000,4.000000,100.000000,,,,,,,,,,,,,,,,,,,,,,,,,,,,,,,,,,,,,,,,,,,,,,,,,,,,,,,,,,,,,,,,,,,,,,,,,,,,,,,,,,
1607717718.107107,50.000000,0.000000,4106.153809,3999.358887,4143.589844,4159.358887,4145.384766,4185.769043,4189.230957,4235.128418,4213.846191,4232.563965,4209.871582,4173.846191,4257.563965,4156.922852,0.000000,4.000000,,,,0.000000,4.000000,4.000000,4.000000,4.000000,4.000000,4.000000,4.000000,4.000000,4.000000,4.000000,4.000000,4.000000,4.000000,4.000000,100.000000,,,,,,,,,,,,,,,,,,,,,,,,,,,,,,,,,,,,,,,,,,,,,,,,,,,,,,,,,,,,,,,,,,,,,,,,,,,,,,,,,,
1607717718.114905,51.000000,0.000000,4098.205078,4000.641113,4136.794922,4159.743652,4143.974121,4185.641113,4192.692383,4228.717773,4206.922852,4224.358887,4199.102539,4169.102539,4245.769043,4148.717773,0.000000,4.000000,,,,0.000000,4.000000,4.000000,4.000000,4.000000,4.000000,4.000000,4.000000,4.000000,4.000000,4.000000,4.000000,4.000000,4.000000,4.000000,100.000000,,,,,,,,,,,,,,,,,,,,,,,,,,,,,,,,,,,,,,,,,,,,,,,,,,,,,,,,,,,,,,,,,,,,,,,,,,,,,,,,,,
1607717718.122603,52.000000,0.000000,4091.923096,3998.076904,4128.846191,4144.358887,4141.538574,4181.922852,4188.846191,4215.000000,4202.436035,4214.615234,4191.538574,4160.512695,4231.538574,4139.743652,0.000000,4.000000,,,,0.000000,4.000000,4.000000,4.000000,4.000000,4.000000,4.000000,4.000000,4.000000,4.000000,4.000000,4.000000,4.000000,4.000000,4.000000,100.000000,13.000000,0.000000,0.675833,-0.220886,-0.703064,0.012634,0.981949,-0.253910,-0.063966,-31.253529,-166.137177,-11.364920,,,,,,,,,,,,,,,,,,,,,,,,,,,,,,,,,,,,,,,,,,,,,,,,,,,,,,,,,,,,,,,,,,,,,,
1607717718.130401,53.000000,0.000000,4090.128174,3999.615479,4125.384766,4138.717773,4135.512695,4171.794922,4172.948730,4207.692383,4200.769043,4217.179688,4181.794922,4153.589844,4217.692383,4135.641113,0.000000,4.000000,,,,0.000000,4.000000,4.000000,4.000000,4.000000,4.000000,4.000000,4.000000,4.000000,4.000000,4.000000,4.000000,4.000000,4.000000,4.000000,100.000000,,,,,,,,,,,,,,,,,,,,,,,,,,,,,,,,,,,,,,,,,,,,,,,,,,,,,,,,,,,,,,,,,,,,,,,,,,,,,,,,,,
1607717718.138199,54.000000,0.000000,4090.000000,4006.281982,4122.948730,4159.871582,4128.205078,4163.589844,4163.846191,4190.000000,4190.769043,4209.487305,4170.897461,4150.897461,4214.615234,4134.487305,0.000000,4.000000,,,,0.000000,4.000000,4.000000,4.000000,4.000000,4.000000,4.000000,4.000000,4.000000,4.000000,4.000000,4.000000,4.000000,4.000000,4.000000,100.000000,,,,,,,,,,,,,,,,,,,,,,,,,,,,,,,,,,,,,,,,,,,,,,,,,,,,,,,,,,,,,,,,,,,,,,,,,,,,,,,,,,
1607717718.145997,55.000000,0.000000,4095.897461,4017.692383,4124.743652,4173.077148,4134.487305,4167.820313,4161.282227,4169.102539,4184.871582,4196.538574,4174.615234,4154.487305,4221.025879,4139.487305,0.000000,4.000000,,,,0.000000,4.000000,4.000000,4.000000,4.000000,4.000000,4.000000,4.000000,4.000000,4.000000,4.000000,4.000000,4.000000,4.000000,4.000000,100.000000,,,,,,,,,,,,,,,,,,,,,,,,,,,,,,,,,,,,,,,,,,,,,,,,,,,,,,,,,,,,,,,,,,,,,,,,,,,,,,,,,,
1607717718.153795,56.000000,0.000000,4095.769287,4015.384521,4124.743652,4160.128418,4136.410156,4167.820313,4152.948730,4165.256348,4184.230957,4190.897461,4176.922852,4151.538574,4214.230957,4135.256348,0.000000,4.000000,,,,0.000000,4.000000,4.000000,4.000000,4.000000,4.000000,4.000000,4.000000,4.000000,4.000000,4.000000,4.000000,4.000000,4.000000,4.000000,100.000000,14.000000,0.000000,0.676776,-0.224182,-0.701172,0.008606,0.995132,-0.280278,-0.070314,-30.356298,-166.436249,-11.065843,4.415443,2.446243,1.476694,1.299593,0.394670,5.011240,2.162711,1.068293,1.397607,0.409205,3.202039,3.782698,0.891687,0.945867,0.332946,2.517487,2.268965,1.120597,1.072500,0.536652,1.705471,1.132150,0.465903,0.642916,0.391894,0.633117,1.055232,0.480379,1.056681,0.791315,0.891830,2.581102,0.494006,0.917015,0.342988,2.013387,2.400124,2.298652,1.388656,0.623767,1.023787,1.334894,1.624252,0.774888,0.495516,1.377184,1.501607,1.300777,0.883811,0.525124,2.234159,1.913083,1.515981,1.192757,0.390218,2.058392,2.130365,0.605507,0.518539,0.198835,2.202917,2.809987,1.687651,1.351604,0.476029,2.365132,2.004623,1.154039,0.828860,0.341342
1607717718.161593,57.000000,0.000000,4088.846191,4007.692383,4120.000000,4151.025879,4123.974121,4155.769043,4148.205078,4166.025879,4182.948730,4184.871582,4168.717773,4141.282227,4203.461426,4121.666504,0.000000,4.000000,,,,0.000000,4.000000,4.000000,4.000000,4.000000,4.000000,4.000000,4.000000,4.000000,4.000000,4.000000,4.000000,4.000000,4.000000,4.000000,100.000000,,,,,,,,,,,,,,,,,,,,,,,,,,,,,,,,,,,,,,,,,,,,,,,,,,,,,,,,,,,,,,,,,,,,,,,,,,,,,,,,,,
1607717718.169391,58.000000,0.000000,4087.948730,4013.589844,4120.769043,4156.025879,4125.000000,4151.794922,4151.794922,4165.641113,4181.410156,4182.820313,4167.820313,4141.794922,4206.282227,4118.205078,0.000000,4.000000,,,,0.000000,4.000000,4.000000,4.000000,4.000000,4.000000,4.000000,4.000000,4.000000,4.000000,4.000000,4.000000,4.000000,4.000000,4.000000,100.000000,,,,,,,,,,,,,,,,,,,,,,,,,,,,,,,,,,,,,,,,,,,,,,,,,,,,,,,,,,,,,,,,,,,,,,,,,,,,,,,,,,
1607717718.177189,59.000000,0.000000,4090.512939,4022.820557,4123.077148,4156.794922,4139.102539,4163.333496,4149.743652,4175.384766,4182.307617,4192.692383,4171.922852,4148.333496,4212.307617,4124.871582,0.000000,4.000000,,,,0.000000,4.000000,4.000000,4.000000,4.000000,4.000000,4.000000,4.000000,4.000000,4.000000,4.000000,4.000000,4.000000,4.000000,4.000000,100.000000,,,,,,,,,,,,,,,,,,,,,,,,,,,,,,,,,,,,,,,,,,,,,,,,,,,,,,,,,,,,,,,,,,,,,,,,,,,,,,,,,,
1607717718.184987,60.000000,0.000000,4090.128174,4026.538574,4114.487305,4152.692383,4137.948730,4170.897461,4149.487305,4185.512695,4184.615234,4196.794922,4171.025879,4143.974121,4214.230957,4124.743652,0.000000,4.000000,,,,0.000000,4.000000,4.000000,4.000000,4.000000,4.000000,4.000000,4.000000,4.000000,4.000000,4.000000,4.000000,4.000000,4.000000,4.000000,100.000000,15.000000,0.000000,0.677555,-0.228394,-0.699097,0.004456,0.976577,-0.344732,-0.065431,-31.403067,-167.034409,-11.215381,,,,,,,,,,,,,,,,,,,,,,,,,,,,,,,,,,,,,,,,,,,,,,,,,,,,,,,,,,,,,,,,,,,,,,
1607717718.192685,61.000000,0.000000,4090.641113,4030.641113,4111.282227,4149.487305,4134.487305,4169.102539,4163.333496,4193.846191,4186.794922,4189.230957,4171.410156,4141.794922,4210.128418,4120.897461,0.000000,4.000000,,,,0.000000,4.000000,4.000000,4.000000,4.000000,4.000000,4.000000,4.000000,4.000000,4.000000,4.000000,4.000000,4.000000,4.000000,4.000000,100.000000,,,,,,,,,,,,,,,,,,,,,,,,,,,,,,,,,,,,,,,,,,,,,,,,,,,,,,,,,,,,,,,,,,,,,,,,,,,,,,,,,,
1607717718.200483,62.000000,0.000000,4091.794922,4035.384521,4120.256348,4151.922852,4141.025879,4172.563965,4173.205078,4198.717773,4183.205078,4182.563965,4167.948730,4147.820313,4205.256348,4126.025879,0.000000,4.000000,,,,0.000000,4.000000,4.000000,4.000000,4.000000,4.000000,4.000000,4.000000,4.000000,4.000000,4.000000,4.000000,4.000000,4.000000,4.000000,100.000000,,,,,,,,,,,,,,,,,,,,,,,,,,,,,,,,,,,,,,,,,,,,,,,,,,,,,,,,,,,,,,,,,,,,,,,,,,,,,,,,,,
1607717718.208281,63.000000,0.000000,4091.794922,4038.718018,4121.282227,4161.538574,4139.615234,4176.025879,4165.000000,4203.589844,4186.666504,4185.384766,4161.794922,4148.846191,4204.871582,4128.974121,0.000000,4.000000,,,,0.000000,4.000000,4.000000,4.000000,4.000000,4.000000,4.000000,4.000000,4.000000,4.000000,4.000000,4.000000,4.000000,4.000000,4.000000,100.000000,,,,,,,,,,,,,,,,,,,,,,,,,,,,,,,,,,,,,,,,,,,,,,,,,,,,,,,,,,,,,,,,,,,,,,,,,,,,,,,,,,
1607717718.216080,64.000000,0.000000,4094.871826,4045.512939,4119.743652,4172.051270,4137.948730,4176.922852,4168.589844,4210.897461,4195.512695,4191.922852,4166.794922,4148.974121,4210.000000,4126.410156,3397.000000,4.000000,,,,0.000000,4.000000,4.000000,4.000000,4.000000,4.000000,4.000000,4.000000,4.000000,4.000000,4.000000,4.000000,4.000000,4.000000,4.000000,100.000000,16.000000,0.000000,0.677456,-0.228882,-0.699036,0.003967,0.985855,-0.382818,-0.068360,-30.206760,-167.034409,-10.916305,,,,,,,,,,,,,,,,,,,,,,,,,,,,,,,,,,,,,,,,,,,,,,,,,,,,,,,,,,,,,,,,,,,,,,
1607717718.223878,65.000000,0.000000,4103.717773,4052.692383,4126.666504,4176.794922,4149.358887,4184.102539,4190.512695,4212.051270,4193.333496,4191.794922,4174.487305,4155.384766,4215.641113,4131.794922,3286.000000,4.000000,,,,0.000000,4.000000,4.000000,4.000000,4.000000,4.000000,4.000000,4.000000,4.000000,4.000000,4.000000,4.000000,4.000000,4.000000,4.000000,100.000000,,,,,,,,,,,,,,,,,,,,,,,,,,,,,,,,,,,,,,,,,,,,,,,,,,,,,,,,,,,,,,,,,,,,,,,,,,,,,,,,,,
1607717718.231676,66.000000,0.000000,4107.563965,4054.487061,4128.461426,4171.410156,4155.384766,4183.461426,4183.205078,4199.230957,4187.563965,4188.077148,4175.256348,4157.051270,4214.615234,4136.410156,3606.000000,4.000000,,,,0.000000,4.000000,4.000000,4.000000,4.000000,4.000000,4.000000,4.000000,4.000000,4.000000,4.000000,4.000000,4.000000,4.000000,4.000000,100.000000,,,,,,,,,,,,,,,,,,,,,,,,,,,,,,,,,,,,,,,,,,,,,,,,,,,,,,,,,,,,,,,,,,,,,,,,,,,,,,,,,,
1607717718.239474,67.000000,0.000000,4096.153809,4052.435791,4122.051270,4166.282227,4145.000000,4174.230957,4151.025879,4182.692383,4179.487305,4184.615234,4171.025879,4151.282227,4207.563965,4125.769043,3613.000000,4.000000,,,,0.000000,4.000000,4.000000,4.000000,4.000000,4.000000,4.000000,4.000000,4.000000,4.000000,4.000000,4.000000,4.000000,4.000000,4.000000,100.000000,,,,,,,,,,,,,,,,,,,,,,,,,,,,,,,,,,,,,,,,,,,,,,,,,,,,,,,,,,,,,,,,,,,,,,,,,,,,,,,,,,
1607717718.247272,68.000000,0.000000,4092.179443,4050.256348,4122.436035,4176.538574,4138.077148,4175.384766,4145.769043,4180.256348,4176.410156,4186.153809,4171.538574,4150.512695,4200.256348,4116.666504,3474.000000,4.000000,,,,0.000000,4.000000,4.000000,4.000000,4.000000,4.000000,4.000000,4.000000,4.000000,4.000000,4.000000,4.000000,4.000000,4.000000,4.000000,100.000000,17.000000,0.000000,0.676096,-0.222351,-0.702393,0.009949,0.951186,-0.356939,-0.093751,-30.954453,-165.838104,-11.215381,,,,,,,,,,,,,,,,,,,,,,,,,,,,,,,,,,,,,,,,,,,,,,,,,,,,,,,,,,,,,,,,,,,,,,
1607717718.255070,69.000000,0.000000,4102.051270,4048.461426,4129.487305,4189.102539,4138.333496,4164.487305,4154.615234,4188.717773,4181.025879,4191.282227,4183.333496,4156.666504,4211.538574,4127.436035,3493.000000,4.000000,,,,0.000000,4.000000,4.000000,4.000000,4.000000,4.000000,4.000000,4.000000,4.000000,4.000000,4.000000,4.000000,4.000000,4.000000,4.000000,100.000000,,,,,,,,,,,,,,,,,,,,,,,,,,,,,,,,,,,,,,,,,,,,,,,,,,,,,,,,,,,,,,,,,,,,,,,,,,,,,,,,,,
1607717718.262769,70.000000,0.000000,4099.230957,4047.307617,4136.922852,4188.974121,4135.512695,4142.692383,4151.153809,4193.846191,4178.846191,4187.820313,4187.948730,4164.743652,4217.307617,4136.538574,3429.000000,4.000000,,,,0.000000,4.000000,4.000000,4.000000,4.000000,4.000000,4.000000,4.000000,4.000000,4.000000,4.000000,4.000000,4.000000,4.000000,4.000000,100.000000,,,,,,,,,,,,,,,,,,,,,,,,,,,,,,,,,,,,,,,,,,,,,,,,,,,,,,,,,,,,,,,,,,,,,,,,,,,,,,,,,,
1607717718.270567,71.000000,0.000000,4091.666748,4048.205078,4143.333496,4195.641113,4141.666504,4155.000000,4159.230957,4200.769043,4178.077148,4186.794922,4179.102539,4172.948730,4196.282227,4134.358887,3529.000000,4.000000,,,,0.000000,4.000000,4.000000,4.000000,4.000000,4.000000,4.000000,4.000000,4.000000,4.000000,4.000000,4.000000,4.000000,4.000000,4.000000,100.000000,,,,,,,,,,,,,,,,,,,,,,,,,,,,,,,,,,,,,,,,,,,,,,,,,,,,,,,,,,,,,,,,,,,,,,,,,,,,,,,,,,
1607717718.278364,72.000000,0.000000,4111.153809,4057.179443,4152.563965,4210.128418,4155.769043,4186.794922,4182.179688,4212.948730,4195.384766,4204.871582,4193.589844,4180.128418,4205.769043,4145.128418,2917.000000,4.000000,,,,0.000000,4.000000,4.000000,4.000000,4.000000,4.000000,4.000000,4.000000,4.000000,4.000000,4.000000,4.000000,4.000000,4.000000,4.000000,100.000000,18.000000,0.000000,0.674496,-0.212952,-0.706665,0.018188,0.964370,-0.340826,-0.103517,-29.758144,-164.791336,-10.916305,4.118372,2.543716,1.558481,1.194095,0.375888,4.913095,2.264787,1.046327,1.256377,0.395010,3.179630,3.689855,0.983282,0.896953,0.304331,2.698950,2.255809,1.066459,1.069847,0.555047,1.703138,1.054822,0.492591,0.646288,0.366390,0.765795,0.950508,0.532917,0.944960,0.781417,0.936681,2.327109,0.595616,0.893776,0.348834,1.746614,2.260129,2.083853,1.322292,0.611544,0.999104,1.100193,1.540698,0.670147,0.515241,1.259768,1.213108,1.351406,0.796707,0.582819,2.347072,1.645624,1.409171,1.093016,0.358701,2.332891,1.949198,0.717125,0.471217,0.195555,2.653334,2.483219,1.580726,1.290295,0.444031,2.697811,1.889281,1.162919,0.756307,0.337767
1607717718.286162,73.000000,0.000000,4144.615234,4080.384521,4164.615234,4216.025879,4156.153809,4189.871582,4188.333496,4210.897461,4202.051270,4219.487305,4224.102539,4187.948730,4257.436035,4170.000000,3384.000000,4.000000,,,,0.000000,4.000000,4.000000,4.000000,4.000000,4.000000,4.000000,4.000000,4.000000,4.000000,4.000000,4.000000,4.000000,4.000000,4.000000,100.000000,,,,,,,,,,,,,,,,,,,,,,,,,,,,,,,,,,,,,,,,,,,,,,,,,,,,,,,,,,,,,,,,,,,,,,,,,,,,,,,,,,
1607717718.293960,74.000000,0.000000,4175.384766,4112.692383,4179.102539,4223.077148,4153.077148,4178.461426,4182.948730,4198.846191,4191.666504,4217.307617,4234.358887,4203.461426,4293.333496,4193.846191,3528.000000,4.000000,,,,0.000000,4.000000,4.000000,4.000000,4.000000,4.000000,4.000000,4.000000,4.000000,4.000000,4.000000,4.000000,4.000000,4.000000,4.000000,100.000000,,,,,,,,,,,,,,,,,,,,,,,,,,,,,,,,,,,,,,,,,,,,,,,,,,,,,,,,,,,,,,,,,,,,,,,,,,,,,,,,,,
1607717718.301758,75.000000,0.000000,4210.641113,4137.820313,4197.307617,4234.230957,4163.846191,4184.615234,4186.410156,4200.384766,4195.384766,4221.025879,4242.820313,4219.102539,4318.077148,4217.820313,3384.000000,4.000000,,,,0.000000,4.000000,4.000000,4.000000,4.000000,4.000000,4.000000,4.000000,4.000000,4.000000,4.000000,4.000000,4.000000,4.000000,4.000000,100.000000,,,,,,,,,,,,,,,,,,,,,,,,,,,,,,,,,,,,,,,,,,,,,,,,,,,,,,,,,,,,,,,,,,,,,,,,,,,,,,,,,,
1607717718.309556,76.000000,0.000000,4239.102539,4145.512695,4208.717773,4239.230957,4168.077148,4192.563965,4187.307617,4202.051270,4203.077148,4230.769043,4265.769043,4220.256348,4358.589844,4241.922852,3509.000000,4.000000,,,,0.000000,4.000000,4.000000,4.000000,4.000000,4.000000,4.000000,4.000000,4.000000,4.000000,4.000000,4.000000,4.000000,4.000000,4.000000,100.000000,19.000000,0.000000,0.673936,-0.209351,-0.708191,0.021179,0.956558,-0.313970,-0.109865,-30.804913,-166.436249,-11.813535,,,,,,,,,,,,,,,,,,,,,,,,,,,,,,,,,,,,,,,,,,,,,,,,,,,,,,,,,,,,,,,,,,,,,,
1607717718.317354,77.000000,0.000000,4252.307617,4144.487305,4207.179688,4244.358887,4159.230957,4188.846191,4186.666504,4202.179688,4200.897461,4230.897461,4273.846191,4216.922852,4380.384766,4255.000000,2770.000000,4.000000,,,,0.000000,4.000000,4.000000,4.000000,4.000000,4.000000,4.000000,4.000000,4.000000,4.000000,4.000000,4.000000,4.000000,4.000000,4.000000,100.000000,,,,,,,,,,,,,,,,,,,,,,,,,,,,,,,,,,,,,,,,,,,,,,,,,,,,,,,,,,,,,,,,,,,,,,,,,,,,,,,,,,
1607717718.325152,78.000000,0.000000,4253.846191,4141.922852,4203.974121,4249.358887,4156.538574,4186.410156,4193.589844,4210.897461,4197.692383,4227.692383,4262.563965,4218.077148,4375.384766,4252.436035,3528.000000,4.000000,,,,0.000000,4.000000,4.000000,4.000000,4.000000,4.000000,4.000000,4.000000,4.000000,4.000000,4.000000,4.000000,4.000000,4.000000,4.000000,100.000000,,,,,,,,,,,,,,,,,,,,,,,,,,,,,,,,,,,,,,,,,,,,,,,,,,,,,,,,,,,,,,,,,,,,,,,,,,,,,,,,,,
1607717718.332950,79.000000,0.000000,4253.717773,4142.051270,4204.615234,4247.307617,4159.743652,4189.743652,4193.974121,4214.743652,4202.820313,4233.333496,4263.461426,4216.538574,4371.282227,4245.384766,3384.000000,4.000000,,,,0.000000,4.000000,4.000000,4.000000,4.000000,4.000000,4.000000,4.000000,4.000000,4.000000,4.000000,4.000000,4.000000,4.000000,4.000000,100.000000,,,,,,,,,,,,,,,,,,,,,,,,,,,,,,,,,,,,,,,,,,,,,,,,,,,,,,,,,,,,,,,,,,,,,,,,,,,,,,,,,,
1607717718.340648,80.000000,0.000000,4251.922852,4138.589844,4204.487305,4246.666504,4157.948730,4188.717773,4184.230957,4220.000000,4215.897461,4233.717773,4270.256348,4210.897461,4353.974121,4235.641113,3509.000000,4.000000,,,,0.000000,4.000000,4.000000,4.000000,4.000000,4.000000,4.000000,4.000000,4.000000,4.000000,4.000000,4.000000,4.000000,4.000000,4.000000,100.000000,20.000000,0.000000,0.673267,-0.204895,-0.710022,0.024475,0.957046,-0.306645,-0.102052,-31.403067,-166.735336,-10.916305,,,,,,,,,,,,,,,,,,,,,,,,,,,,,,,,,,,,,,,,,,,,,,,,,,,,,,,,,,,,,,,,,,,,,,
1607717718.348446,81.000000,0.000000,4235.512695,4125.769043,4197.307617,4247.179688,4153.589844,4184.358887,4184.102539,4222.563965,4215.000000,4221.922852,4255.256348,4203.974121,4326.153809,4221.025879,2770.000000,4.000000,,,,0.000000,4.000000,4.000000,4.000000,4.000000,4.000000,4.000000,4.000000,4.000000,4.000000,4.000000,4.000000,4.000000,4.000000,4.000000,100.000000,,,,,,,,,,,,,,,,,,,,,,,,,,,,,,,,,,,,,,,,,,,,,,,,,,,,,,,,,,,,,,,,,,,,,,,,,,,,,,,,,,
1607717718.356244,82.000000,0.000000,4216.922852,4116.666504,4188.077148,4242.948730,4155.897461,4188.077148,4189.615234,4199.615234,4199.871582,4214.487305,4233.846191,4197.563965,4311.282227,4209.871582,3528.000000,4.000000,,,,0.000000,4.000000,4.000000,4.000000,4.000000,4.000000,4.000000,4.000000,4.000000,4.000000,4.000000,4.000000,4.000000,4.000000,4.000000,100.000000,,,,,,,,,,,,,,,,,,,,,,,,,,,,,,,,,,,,,,,,,,,,,,,,,,,,,,,,,,,,,,,,,,,,,,,,,,,,,,,,,,
1607717718.364042,83.000000,0.000000,4216.538574,4122.692383,4186.410156,4244.871582,4159.871582,4191.538574,4184.230957,4184.743652,4199.487305,4216.794922,4232.820313,4199.230957,4309.102539,4211.794922,3384.000000,4.000000,,,,0.000000,4.000000,4.000000,4.000000,4.000000,4.000000,4.000000,4.000000,4.000000,4.000000,4.000000,4.000000,4.000000,4.000000,4.000000,100.000000,,,,,,,,,,,,,,,,,,,,,,,,,,,,,,,,,,,,,,,,,,,,,,,,,,,,,,,,,,,,,,,,,,,,,,,,,,,,,,,,,,
1607717718.371840,84.000000,0.000000,4216.410156,4125.897461,4189.743652,4245.128418,4157.179688,4188.589844,4180.128418,4195.897461,4202.051270,4219.615234,4236.410156,4196.666504,4309.743652,4216.666504,3509.000000,4.000000,,,,0.000000,4.000000,4.000000,4.000000,4.000000,4.000000,4.000000,4.000000,4.000000,4.000000,4.000000,4.000000,4.000000,4.000000,4.000000,100.000000,21.000000,0.000000,0.673451,-0.204529,-0.709961,0.024231,0.955581,-0.316411,-0.121096,-30.804913,-165.389481,-11.065843,,,,,,,,,,,,,,,,,,,,,,,,,,,,,,,,,,,,,,,,,,,,,,,,,,,,,,,,,,,,,,,,,,,,,,
1607717718.379638,85.000000,0.000000,4207.692383,4119.487305,4188.461426,4246.666504,4154.487305,4186.153809,4185.000000,4202.436035,4196.153809,4223.717773,4229.358887,4188.589844,4308.717773,4214.230957,2770.000000,4.000000,,,,0.000000,4.000000,4.000000,4.000000,4.000000,4.000000,4.000000,4.000000,4.000000,4.000000,4.000000,4.000000,4.000000,4.000000,4.000000,100.000000,,,,,,,,,,,,,,,,,,,,,,,,,,,,,,,,,,,,,,,,,,,,,,,,,,,,,,,,,,,,,,,,,,,,,,,,,,,,,,,,,,
1607717718.387436,86.000000,0.000000,4206.922852,4117.563965,4186.666504,4255.384766,4154.102539,4176.666504,4185.000000,4205.512695,4206.153809,4231.922852,4225.641113,4191.153809,4303.589844,4211.794922,3528.000000,4.000000,,,,0.000000,4.000000,4.000000,4.000000,4.000000,4.000000,4.000000,4.000000,4.000000,4.000000,4.000000,4.000000,4.000000,4.000000,4.000000,100.000000,,,,,,,,,,,,,,,,,,,,,,,,,,,,,,,,,,,,,,,,,,,,,,,,,,,,,,,,,,,,,,,,,,,,,,,,,,,,,,,,,,
1607717718.395234,87.000000,0.000000,4210.384766,4122.820313,4186.666504,4252.948730,4148.333496,4167.563965,4181.538574,4212.436035,4211.922852,4232.436035,4230.128418,4196.922852,4297.692383,4212.692383,3384.000000,4.000000,,,,0.000000,4.000000,4.000000,4.000000,4.000000,4.000000,4.000000,4.000000,4.000000,4.000000,4.000000,4.000000,4.000000,4.000000,4.000000,100.000000,,,,,,,,,,,,,,,,,,,,,,,,,,,,,,,,,,,,,,,,,,,,,,,,,,,,,,,,,,,,,,,,,,,,,,,,,,,,,,,,,,
1607717718.403032,88.000000,0.000000,4211.153809,4126.153809,4187.820313,4243.717773,4145.000000,4176.410156,4183.461426,4213.077148,4198.974121,4225.769043,4239.487305,4197.436035,4295.256348,4214.487305,3509.000000,4.000000,,,,0.000000,4.000000,4.000000,4.000000,4.000000,4.000000,4.000000,4.000000,4.000000,4.000000,4.000000,4.000000,4.000000,4.000000,4.000000,100.000000,22.000000,0.000000,0.674423,-0.208069,-0.708130,0.020325,0.976089,-0.320806,-0.083497,-30.057220,-166.137177,-11.364920,3.741257,2.884606,1.671862,1.068896,0.360766,5.569188,3.015000,1.208893,1.083125,0.384629,3.256883,3.593927,1.115637,0.842399,0.278129,2.976402,2.401949,1.064658,1.093578,0.611801,1.672812,1.053043,0.516419,0.628106,0.334167,0.886672,0.973776,0.612829,0.864813,0.792289,0.990198,2.302675,0.734164,0.865928,0.351516,1.467355,2.512263,1.779276,1.206076,0.577610,0.945182,0.940584,1.406946,0.563384,0.522420,1.353500,1.052770,1.491551,0.779456,0.628760,2.839470,1.486196,1.313053,1.030754,0.337607,2.702240,1.786112,0.838887,0.444219,0.193950,4.213715,2.182237,1.463477,1.243021,0.426528,3.106068,1.796109,1.162786,0.710144,0.332472
1607717718.410730,89.000000,0.000000,4211.922852,4123.461426,4190.512695,4251.794922,4152.179688,4186.153809,4185.897461,4216.794922,4205.000000,4220.384766,4244.102539,4196.666504,4295.769043,4216.153809,2770.000000,4.000000,,,,0.000000,4.000000,4.000000,4.000000,4.000000,4.000000,4.000000,4.000000,4.000000,4.000000,4.000000,4.000000,4.000000,4.000000,4.000000,100.000000,,,,,,,,,,,,,,,,,,,,,,,,,,,,,,,,,,,,,,,,,,,,,,,,,,,,,,,,,,,,,,,,,,,,,,,,,,,,,,,,,,
1607717718.418528,90.000000,0.000000,4210.512695,4120.769043,4189.615234,4255.897461,4158.589844,4187.307617,4186.282227,4217.948730,4219.615234,4216.794922,4236.666504,4191.538574,4294.102539,4210.641113,3528.000000,4.000000,,,,0.000000,4.000000,4.000000,4.000000,4.000000,4.000000,4.000000,4.000000,4.000000,4.000000,4.000000,4.000000,4.000000,4.000000,4.000000,100.000000,,,,,,,,,,,,,,,,,,,,,,,,,,,,,,,,,,,,,,,,,,,,,,,,,,,,,,,,,,,,,,,,,,,,,,,,,,,,,,,,,,
1607717718.426327,91.000000,0.000000,4200.897461,4119.615234,4182.436035,4244.487305,4148.461426,4180.512695,4184.358887,4205.128418,4205.897461,4219.615234,4227.179688,4183.077148,4284.871582,4199.743652,3384.000000,4.000000,,,,0.000000,4.000000,4.000000,4.000000,4.000000,4.000000,4.000000,4.000000,4.000000,4.000000,4.000000,4.000000,4.000000,4.000000,4.000000,100.000000,,,,,,,,,,,,,,,,,,,,,,,,,,,,,,,,,,,,,,,,,,,,,,,,,,,,,,,,,,,,,,,,,,,,,,,,,,,,,,,,,,
1607717718.434125,92.000000,0.000000,4197.307617,4118.205078,4182.563965,4249.487305,4136.538574,4168.589844,4180.384766,4205.769043,4198.077148,4228.205078,4228.077148,4187.563965,4281.538574,4199.487305,3509.000000,4.000000,,,,0.000000,4.000000,4.000000,4.000000,4.000000,4.000000,4.000000,4.000000,4.000000,4.000000,4.000000,4.000000,4.000000,4.000000,4.000000,100.000000,23.000000,0.000000,0.675360,-0.212219,-0.706116,0.015869,0.962417,-0.312505,-0.107912,-29.758144,-165.090408,-11.215381,,,,,,,,,,,,,,,,,,,,,,,,,,,,,,,,,,,,,,,,,,,,,,,,,,,,,,,,,,,,,,,,,,,,,,
1607717718.441923,93.000000,0.000000,4209.487305,4124.102539,4193.846191,4264.230957,4143.846191,4177.179688,4187.692383,4220.897461,4218.077148,4234.743652,4239.230957,4198.974121,4293.589844,4212.948730,2770.000000,4.000000,,,,0.000000,4.000000,4.000000,4.000000,4.000000,4.000000,4.000000,4.000000,4.000000,4.000000,4.000000,4.000000,4.000000,4.000000,4.000000,100.000000,,,,,,,,,,,,,,,,,,,,,,,,,,,,,,,,,,,,,,,,,,,,,,,,,,,,,,,,,,,,,,,,,,,,,,,,,,,,,,,,,,
1607717718.449721,94.000000,0.000000,4215.128418,4128.717773,4198.333496,4265.000000,4157.820313,4197.820313,4197.436035,4220.384766,4219.102539,4234.487305,4250.128418,4201.282227,4300.769043,4221.025879,3528.000000,4.000000,,,,0.000000,4.000000,4.000000,4.000000,4.000000,4.000000,4.000000,4.000000,4.000000,4.000000,4.000000,4.000000,4.000000,4.000000,4.000000,100.000000,,,,,,,,,,,,,,,,,,,,,,,,,,,,,,,,,,,,,,,,,,,,,,,,,,,,,,,,,,,,,,,,,,,,,,,,,,,,,,,,,,
1607717718.457519,95.000000,0.000000,4206.666504,4127.307617,4192.436035,4260.512695,4155.384766,4188.333496,4188.846191,4214.743652,4203.846191,4231.025879,4246.666504,4196.794922,4293.846191,4216.794922,3384.000000,4.000000,,,,0.000000,4.000000,4.000000,4.000000,4.000000,4.000000,4.000000,4.000000,4.000000,4.000000,4.000000,4.000000,4.000000,4.000000,4.000000,100.000000,,,,,,,,,,,,,,,,,,,,,,,,,,,,,,,,,,,,,,,,,,,,,,,,,,,,,,,,,,,,,,,,,,,,,,,,,,,,,,,,,,
1607717718.465318,96.000000,0.000000,4214.615234,4137.820313,4194.615234,4262.563965,4149.487305,4176.538574,4180.897461,4217.820313,4210.512695,4232.563965,4242.179688,4197.948730,4296.410156,4219.871582,3509.000000,4.000000,,,,0.000000,4.000000,4.000000,4.000000,4.000000,4.000000,4.000000,4.000000,4.000000,4.000000,4.000000,4.000000,4.000000,4.000000,4.000000,100.000000,24.000000,0.000000,0.676276,-0.215820,-0.704224,0.011902,0.971206,-0.323735,-0.088380,-29.758144,-165.838104,-11.215381,,,,,,,,,,,,,,,,,,,,,,,,,,,,,,,,,,,,,,,,,,,,,,,,,,,,,,,,,,,,,,,,,,,,,,
1607717718.473116,97.000000,0.000000,4241.666504,4156.538574,4209.871582,4274.615234,4162.948730,4197.692383,4192.820313,4218.846191,4220.384766,4235.256348,4256.666504,4210.512695,4312.948730,4238.205078,2770.000000,4.000000,,,,0.000000,4.000000,4.000000,4.000000,4.000000,4.000000,4.000000,4.000000,4.000000,4.000000,4.000000,4.000000,4.000000,4.000000,4.000000,100.000000,,,,,,,,,,,,,,,,,,,,,,,,,,,,,,,,,,,,,,,,,,,,,,,,,,,,,,,,,,,,,,,,,,,,,,,,,,,,,,,,,,
1607717718.480812,98.000000,0.000000,4247.563965,4158.717773,4218.077148,4284.102539,4171.666504,4199.871582,4201.410156,4213.846191,4207.179688,4233.205078,4264.102539,4215.512695,4313.846191,4246.025879,3528.000000,4.000000,,,,0.000000,4.000000,4.000000,4.000000,4.000000,4.000000,4.000000,4.000000,4.000000,4.000000,4.000000,4.000000,4.000000,4.000000,4.000000,100.000000,,,,,,,,,,,,,,,,,,,,,,,,,,,,,,,,,,,,,,,,,,,,,,,,,,,,,,,,,,,,,,,,,,,,,,,,,,,,,,,,,,
1607717718.488608,99.000000,0.000000,4234.230957,4152.179688,4215.128418,4280.897461,4168.846191,4191.538574,4200.256348,4211.282227,4197.051270,4230.000000,4251.025879,4209.102539,4298.333496,4235.769043,3384.000000,4.000000,,,,0.000000,4.000000,4.000000,4.000000,4.000000,4.000000,4.000000,4.000000,4.000000,4.000000,4.000000,4.000000,4.000000,4.000000,4.000000,100.000000,,,,,,,,,,,,,,,,,,,,,,,,,,,,,,,,,,,,,,,,,,,,,,,,,,,,,,,,,,,,,,,,,,,,,,,,,,,,,,,,,,
1607717718.496404,100.000000,0.000000,4232.436035,4153.461426,4216.153809,4282.948730,4176.794922,4219.358887,4201.922852,4215.256348,4209.743652,4231.538574,4245.641113,4207.820313,4292.948730,4230.512695,3509.000000,4.000000,,,,0.000000,4.000000,4.000000,4.000000,4.000000,4.000000,4.000000,4.000000,4.000000,4.000000,4.000000,4.000000,4.000000,4.000000,4.000000,100.000000,25.000000,0.000000,0.677340,-0.220398,-0.701843,0.007141,0.979995,-0.318364,-0.100099,-30.356298,-163.894104,-12.561227,,,,,,,,,,,,,,,,,,,,,,,,,,,,,,,,,,,,,,,,,,,,,,,,,,,,,,,,,,,,,,,,,,,,,,
1607717718.504102,101.000000,0.000000,4236.794922,4155.769043,4218.461426,4289.871582,4186.410156,4227.948730,4199.871582,4216.282227,4216.922852,4233.333496,4246.794922,4207.820313,4295.000000,4232.692383,2770.000000,4.000000,,,,0.000000,4.000000,4.000000,4.000000,4.000000,4.000000,4.000000,4.000000,4.000000,4.000000,4.000000,4.000000,4.000000,4.000000,4.000000,100.000000,,,,,,,,,,,,,,,,,,,,,,,,,,,,,,,,,,,,,,,,,,,,,,,,,,,,,,,,,,,,,,,,,,,,,,,,,,,,,,,,,,
1607717718.511900,102.000000,0.000000,4236.282227,4154.358887,4215.897461,4285.384766,4184.487305,4200.000000,4199.743652,4208.846191,4206.922852,4231.666504,4239.487305,4201.410156,4286.538574,4229.615234,3528.000000,4.000000,,,,0.000000,4.000000,4.000000,4.000000,4.000000,4.000000,4.000000,4.000000,4.000000,4.000000,4.000000,4.000000,4.000000,4.000000,4.000000,100.000000,,,,,,,,,,,,,,,,,,,,,,,,,,,,,,,,,,,,,,,,,,,,,,,,,,,,,,,,,,,,,,,,,,,,,,,,,,,,,,,,,,
1607717718.519697,103.000000,0.000000,4231.282227,4146.025879,4213.205078,4280.641113,4182.307617,4192.820313,4202.692383,4203.974121,4201.025879,4230.769043,4232.948730,4197.563965,4275.512695,4224.102539,3384.000000,4.000000,,,,0.000000,4.000000,4.000000,4.000000,4.000000,4.000000,4.000000,4.000000,4.000000,4.000000,4.000000,4.000000,4.000000,4.000000,4.000000,100.000000,,,,,,,,,,,,,,,,,,,,,,,,,,,,,,,,,,,,,,,,,,,,,,,,,,,,,,,,,,,,,,,,,,,,,,,,,,,,,,,,,,
1607717718.527495,104.000000,0.000000,4228.077148,4144.871582,4213.717773,4290.256348,4182.051270,4202.436035,4200.128418,4205.769043,4203.077148,4226.666504,4233.589844,4198.846191,4277.948730,4221.922852,3509.000000,4.000000,,,,0.000000,4.000000,4.000000,4.000000,4.000000,4.000000,4.000000,4.000000,4.000000,4.000000,4.000000,4.000000,4.000000,4.000000,4.000000,100.000000,26.000000,0.000000,0.678489,-0.225830,-0.699036,0.001587,0.974136,-0.322271,-0.086915,-30.804913,-166.884872,-11.364920,3.709078,3.588171,1.915862,1.004348,0.352031,8.432085,4.769092,1.717192,0.972215,0.382360,3.508550,3.593203,1.319716,0.825275,0.257903,3.439338,2.868485,1.212401,1.158967,0.695782,1.698076,1.192002,0.552138,0.607634,0.305405,0.973569,1.205704,0.722792,0.842416,0.823445,1.065972,2.797731,0.897938,0.873665,0.351078,1.294026,3.522536,1.467014,1.088171,0.529395,0.884035,0.919318,1.256037,0.481979,0.514064,1.814164,1.039736,1.668240,0.870544,0.659719,3.922081,1.478576,1.276729,1.068731,0.338606,3.203609,1.739434,0.975953,0.459723,0.196535,7.849627,2.239760,1.485901,1.282860,0.433596,3.669754,1.852543,1.192969,0.737436,0.329049
1607717718.535293,105.000000,0.000000,4227.820313,4147.692383,4212.307617,4292.820313,4177.436035,4205.384766,4198.974121,4207.563965,4203.717773,4219.487305,4232.820313,4198.974121,4276.025879,4217.563965,2770.000000,4.000000,,,,0.000000,4.000000,4.000000,4.000000,4.000000,4.000000,4.000000,4.000000,4.000000,4.000000,4.000000,4.000000,4.000000,4.000000,4.000000,100.000000,,,,,,,,,,,,,,,,,,,,,,,,,,,,,,,,,,,,,,,,,,,,,,,,,,,,,,,,,,,,,,,,,,,,,,,,,,,,,,,,,,
1607717718.543090,106.000000,0.000000,4226.153809,4135.512695,4208.974121,4281.794922,4177.051270,4214.743652,4204.102539,4203.205078,4201.538574,4218.717773,4228.717773,4195.256348,4261.794922,4211.794922,3528.000000,4.000000,,,,0.000000,4.000000,4.000000,4.000000,4.000000,4.000000,4.000000,4.000000,4.000000,4.000000,4.000000,4.000000,4.000000,4.000000,4.000000,100.000000,,,,,,,,,,,,,,,,,,,,,,,,,,,,,,,,,,,,,,,,,,,,,,,,,,,,,,,,,,,,,,,,,,,,,,,,,,,,,,,,,,
1607717718.550888,107.000000,0.000000,4226.922852,4142.820313,4207.820313,4281.282227,4181.025879,4214.358887,4202.179688,4198.846191,4198.205078,4218.589844,4226.794922,4189.871582,4267.820313,4214.743652,3384.000000,4.000000,,,,0.000000,4.000000,4.000000,4.000000,4.000000,4.000000,4.000000,4.000000,4.000000,4.000000,4.000000,4.000000,4.000000,4.000000,4.000000,100.000000,,,,,,,,,,,,,,,,,,,,,,,,,,,,,,,,,,,,,,,,,,,,,,,,,,,,,,,,,,,,,,,,,,,,,,,,,,,,,,,,,,
1607717718.558686,108.000000,0.000000,4240.512695,4180.384766,4216.025879,4293.717773,4184.743652,4199.487305,4198.333496,4201.666504,4195.128418,4216.410156,4230.256348,4195.128418,4292.436035,4228.846191,3509.000000,4.000000,,,,0.000000,4.000000,4.000000,4.000000,4.000000,4.000000,4.000000,4.000000,4.000000,4.000000,4.000000,4.000000,4.000000,4.000000,4.000000,100.000000,27.000000,0.000000,0.679392,-0.230408,-0.696655,-0.003174,0.978531,-0.320806,-0.095705,-32.300297,-166.735336,-11.963073,,,,,,,,,,,,,,,,,,,,,,,,,,,,,,,,,,,,,,,,,,,,,,,,,,,,,,,,,,,,,,,,,,,,,,
1607717718.566384,109.000000,0.000000,4259.358887,4194.743652,4230.384766,4304.743652,4187.820313,4203.974121,4201.410156,4201.922852,4197.436035,4218.974121,4233.974121,4205.769043,4300.256348,4242.563965,2770.000000,4.000000,,,,0.000000,4.000000,4.000000,4.000000,4.000000,4.000000,4.000000,4.000000,4.000000,4.000000,4.000000,4.000000,4.000000,4.000000,4.000000,100.000000,,,,,,,,,,,,,,,,,,,,,,,,,,,,,,,,,,,,,,,,,,,,,,,,,,,,,,,,,,,,,,,,,,,,,,,,,,,,,,,,,,
1607717718.574182,110.000000,0.000000,4261.153809,4182.820313,4235.897461,4309.230957,4188.846191,4215.128418,4200.000000,4199.743652,4201.282227,4222.820313,4233.974121,4205.256348,4294.102539,4245.384766,3528.000000,4.000000,,,,0.000000,4.000000,4.000000,4.000000,4.000000,4.000000,4.000000,4.000000,4.000000,4.000000,4.000000,4.000000,4.000000,4.000000,4.000000,100.000000,,,,,,,,,,,,,,,,,,,,,,,,,,,,,,,,,,,,,,,,,,,,,,,,,,,,,,,,,,,,,,,,,,,,,,,,,,,,,,,,,,
1607717718.581981,111.000000,0.000000,4249.871582,4187.051270,4230.256348,4312.563965,4191.025879,4214.615234,4199.358887,4210.512695,4201.025879,4219.102539,4232.051270,4201.794922,4290.000000,4241.794922,3384.000000,4.000000,,,,0.000000,4.000000,4.000000,4.000000,4.000000,4.000000,4.000000,4.000000,4.000000,4.000000,4.000000,4.000000,4.000000,4.000000,4.000000,100.000000,,,,,,,,,,,,,,,,,,,,,,,,,,,,,,,,,,,,,,,,,,,,,,,,,,,,,,,,,,,,,,,,,,,,,,,,,,,,,,,,,,
1607717718.589779,112.000000,0.000000,4243.974121,4188.461426,4221.922852,4310.512695,4193.846191,4214.743652,4203.461426,4218.205078,4199.615234,4213.333496,4231.538574,4203.589844,4282.179688,4237.820313,3509.000000,4.000000,,,,0.000000,4.000000,4.000000,4.000000,4.000000,4.000000,4.000000,4.000000,4.000000,4.000000,4.000000,4.000000,4.000000,4.000000,4.000000,100.000000,28.000000,0.000000,0.679758,-0.232239,-0.695679,-0.005066,0.990738,-0.325200,-0.062013,-30.655375,-164.791336,-10.916305,,,,,,,,,,,,,,,,,,,,,,,,,,,,,,,,,,,,,,,,,,,,,,,,,,,,,,,,,,,,,,,,,,,,,,
1607717718.597577,113.000000,0.000000,4246.282227,4173.205078,4216.794922,4305.641113,4194.102539,4212.820313,4199.102539,4205.256348,4201.538574,4217.436035,4229.358887,4202.563965,4275.000000,4233.717773,2770.000000,4.000000,,,,0.000000,4.000000,4.000000,4.000000,4.000000,4.000000,4.000000,4.000000,4.000000,4.000000,4.000000,4.000000,4.000000,4.000000,4.000000,100.000000,,,,,,,,,,,,,,,,,,,,,,,,,,,,,,,,,,,,,,,,,,,,,,,,,,,,,,,,,,,,,,,,,,,,,,,,,,,,,,,,,,
1607717718.605375,114.000000,0.000000,4248.589844,4177.051270,4216.794922,4310.128418,4198.846191,4211.922852,4199.487305,4200.897461,4208.333496,4231.538574,4230.897461,4200.000000,4279.230957,4231.538574,3528.000000,4.000000,,,,0.000000,4.000000,4.000000,4.000000,4.000000,4.000000,4.000000,4.000000,4.000000,4.000000,4.000000,4.000000,4.000000,4.000000,4.000000,100.000000,,,,,,,,,,,,,,,,,,,,,,,,,,,,,,,,,,,,,,,,,,,,,,,,,,,,,,,,,,,,,,,,,,,,,,,,,,,,,,,,,,
1607717718.613173,115.000000,0.000000,4239.230957,4189.615234,4217.179688,4313.461426,4205.128418,4222.051270,4216.282227,4216.410156,4209.743652,4236.410156,4238.717773,4199.743652,4280.641113,4228.717773,3384.000000,4.000000,,,,0.000000,4.000000,4.000000,4.000000,4.000000,4.000000,4.000000,4.000000,4.000000,4.000000,4.000000,4.000000,4.000000,4.000000,4.000000,100.000000,,,,,,,,,,,,,,,,,,,,,,,,,,,,,,,,,,,,,,,,,,,,,,,,,,,,,,,,,,,,,,,,,,,,,,,,,,,,,,,,,,
1607717718.620971,116.000000,0.000000,4227.948730,4182.820313,4210.769043,4305.641113,4197.948730,4214.871582,4215.000000,4217.179688,4202.948730,4224.615234,4239.871582,4199.487305,4277.563965,4225.641113,3509.000000,4.000000,,,,0.000000,4.000000,4.000000,4.000000,4.000000,4.000000,4.000000,4.000000,4.000000,4.000000,4.000000,4.000000,4.000000,4.000000,4.000000,100.000000,29.000000,0.000000,0.680148,-0.234497,-0.694519,-0.007263,0.982437,-0.323735,-0.071778,-31.702145,-164.940872,-11.065843,,,,,,,,,,,,,,,,,,,,,,,,,,,,,,,,,,,,,,,,,,,,,,,,,,,,,,,,,,,,,,,,,,,,,,
1607717718.628770,117.000000,0.000000,4235.384766,4174.102539,4208.589844,4300.769043,4192.307617,4199.487305,4199.743652,4208.205078,4206.666504,4222.179688,4240.897461,4200.641113,4279.102539,4228.589844,2770.000000,4.000000,,,,0.000000,4.000000,4.000000,4.000000,4.000000,4.000000,4.000000,4.000000,4.000000,4.000000,4.000000,4.000000,4.000000,4.000000,4.000000,100.000000,,,,,,,,,,,,,,,,,,,,,,,,,,,,,,,,,,,,,,,,,,,,,,,,,,,,,,,,,,,,,,,,,,,,,,,,,,,,,,,,,,
1607717718.636568,118.000000,0.000000,4251.538574,4184.230957,4215.128418,4311.410156,4202.179688,4215.512695,4209.615234,4219.743652,4217.692383,4231.538574,4246.794922,4203.205078,4282.436035,4233.717773,3528.000000,4.000000,,,,0.000000,4.000000,4.000000,4.000000,4.000000,4.000000,4.000000,4.000000,4.000000,4.000000,4.000000,4.000000,4.000000,4.000000,4.000000,100.000000,,,,,,,,,,,,,,,,,,,,,,,,,,,,,,,,,,,,,,,,,,,,,,,,,,,,,,,,,,,,,,,,,,,,,,,,,,,,,,,,,,
1607717718.644266,119.000000,0.000000,4249.102539,4189.230957,4216.410156,4315.000000,4207.563965,4231.666504,4222.692383,4232.179688,4218.077148,4232.051270,4240.000000,4202.436035,4280.256348,4230.769043,3384.000000,4.000000,,,,0.000000,4.000000,4.000000,4.000000,4.000000,4.000000,4.000000,4.000000,4.000000,4.000000,4.000000,4.000000,4.000000,4.000000,4.000000,100.000000,,,,,,,,,,,,,,,,,,,,,,,,,,,,,,,,,,,,,,,,,,,,,,,,,,,,,,,,,,,,,,,,,,,,,,,,,,,,,,,,,,
1607717718.652064,120.000000,0.000000,4235.384766,4178.974121,4214.615234,4310.000000,4200.897461,4218.717773,4217.436035,4232.436035,4216.153809,4231.922852,4227.692383,4201.538574,4274.871582,4227.307617,3509.000000,4.000000,,,,0.000000,4.000000,4.000000,4.000000,4.000000,4.000000,4.000000,4.000000,4.000000,4.000000,4.000000,4.000000,4.000000,4.000000,4.000000,100.000000,30.000000,0.000000,0.680107,-0.234619,-0.694519,-0.007202,0.975113,-0.312505,-0.061524,-30.804913,-165.688568,-11.065843,4.561852,4.758654,2.347772,1.035333,0.349452,13.303510,7.538071,2.591102,0.975582,0.389329,3.908012,3.740597,1.579132,0.858759,0.246042,4.275607,3.660866,1.544710,1.245070,0.780858,1.733064,1.475038,0.602942,0.599470,0.290159,1.044116,1.661608,0.856766,0.876843,0.862803,1.142564,3.908925,1.065109,0.940117,0.350705,1.293161,5.372318,1.229236,1.014715,0.478481,0.843686,1.043501,1.105234,0.439745,0.493576,2.703647,1.164186,1.805933,1.041032,0.674438,5.871786,1.654699,1.301769,1.211589,0.365692,3.835257,1.861692,1.115784,0.516006,0.204732,14.562539,3.065365,1.813201,1.429662,0.467352,4.605682,2.210646,1.306743,0.844812,0.330042
1607717718.659862,121.000000,0.000000,4231.538574,4178.846191,4218.077148,4308.846191,4197.820313,4211.025879,4211.922852,4232.307617,4214.743652,4230.641113,4231.538574,4202.692383,4272.436035,4229.615234,2770.000000,4.000000,,,,0.000000,4.000000,4.000000,4.000000,4.000000,4.000000,4.000000,4.000000,4.000000,4.000000,4.000000,4.000000,4.000000,4.000000,4.000000,100.000000,,,,,,,,,,,,,,,,,,,,,,,,,,,,,,,,,,,,,,,,,,,,,,,,,,,,,,,,,,,,,,,,,,,,,,,,,,,,,,,,,,
1607717718.667660,122.000000,0.000000,4228.974121,4180.769043,4216.922852,4311.410156,4200.641113,4217.692383,4207.179688,4226.666504,4206.922852,4221.922852,4237.692383,4201.282227,4267.179688,4226.538574,3528.000000,4.000000,,,,0.000000,4.000000,4.000000,4.000000,4.000000,4.000000,4.000000,4.000000,4.000000,4.000000,4.000000,4.000000,4.000000,4.000000,4.000000,100.000000,,,,,,,,,,,,,,,,,,,,,,,,,,,,,,,,,,,,,,,,,,,,,,,,,,,,,,,,,,,,,,,,,,,,,,,,,,,,,,,,,,
1607717718.675458,123.000000,0.000000,4230.384766,4172.307617,4213.205078,4311.666504,4199.487305,4215.000000,4200.128418,4214.871582,4201.538574,4220.641113,4230.128418,4197.948730,4260.256348,4221.410156,3384.000000,4.000000,,,,0.000000,4.000000,4.000000,4.000000,4.000000,4.000000,4.000000,4.000000,4.000000,4.000000,4.000000,4.000000,4.000000,4.000000,4.000000,100.000000,,,,,,,,,,,,,,,,,,,,,,,,,,,,,,,,,,,,,,,,,,,,,,,,,,,,,,,,,,,,,,,,,,,,,,,,,,,,,,,,,,
1607717718.683256,124.000000,0.000000,4242.563965,4175.128418,4221.025879,4319.230957,4199.487305,4213.461426,4199.358887,4213.205078,4204.230957,4230.897461,4230.512695,4199.871582,4265.897461,4227.820313,3509.000000,4.000000,,,,0.000000,4.000000,4.000000,4.000000,4.000000,4.000000,4.000000,4.000000,4.000000,4.000000,4.000000,4.000000,4.000000,4.000000,4.000000,100.000000,31.000000,0.000000,0.679930,-0.233887,-0.694946,-0.006470,0.975601,-0.311040,-0.081056,-29.758144,-166.735336,-11.663997,,,,,,,,,,,,,,,,,,,,,,,,,,,,,,,,,,,,,,,,,,,,,,,,,,,,,,,,,,,,,,,,,,,,,,
1607717718.691054,125.000000,0.000000,4249.743652,4193.589844,4230.512695,4330.897461,4201.666504,4216.922852,4201.153809,4224.102539,4207.948730,4232.948730,4250.128418,4209.358887,4278.717773,4242.179688,2770.000000,4.000000,,,,0.000000,4.000000,4.000000,4.000000,4.000000,4.000000,4.000000,4.000000,4.000000,4.000000,4.000000,4.000000,4.000000,4.000000,4.000000,100.000000,,,,,,,,,,,,,,,,,,,,,,,,,,,,,,,,,,,,,,,,,,,,,,,,,,,,,,,,,,,,,,,,,,,,,,,,,,,,,,,,,,
1607717718.698852,126.000000,0.000000,4254.615234,4204.358887,4236.282227,4331.153809,4199.871582,4212.948730,4207.179688,4225.384766,4211.922852,4229.615234,4265.256348,4217.563965,4283.205078,4250.384766,3528.000000,4.000000,,,,0.000000,4.000000,4.000000,4.000000,4.000000,4.000000,4.000000,4.000000,4.000000,4.000000,4.000000,4.000000,4.000000,4.000000,4.000000,100.000000,,,,,,,,,,,,,,,,,,,,,,,,,,,,,,,,,,,,,,,,,,,,,,,,,,,,,,,,,,,,,,,,,,,,,,,,,,,,,,,,,,
1607717718.706650,127.000000,0.000000,4260.384766,4197.307617,4243.974121,4333.461426,4199.358887,4214.358887,4219.615234,4219.487305,4215.000000,4232.307617,4257.436035,4217.948730,4280.897461,4249.871582,57.000000,4.000000,,,,0.000000,4.000000,4.000000,4.000000,4.000000,4.000000,4.000000,4.000000,4.000000,4.000000,4.000000,4.000000,4.000000,4.000000,4.000000,100.000000,,,,,,,,,,,,,,,,,,,,,,,,,,,,,,,,,,,,,,,,,,,,,,,,,,,,,,,,,,,,,,,,,,,,,,,,,,,,,,,,,,
1607717718.714348,0.000000,0.000000,4255.512695,4189.743652,4248.974121,4333.846191,4200.897461,4216.282227,4220.128418,4219.871582,4208.333496,4234.102539,4246.025879,4214.871582,4284.487305,4249.358887,3393.000000,4.000000,,,,0.000000,4.000000,4.000000,4.000000,4.000000,4.000000,4.000000,4.000000,4.000000,4.000000,4.000000,4.000000,4.000000,4.000000,4.000000,100.000000,0.000000,0.000000,0.679996,-0.233521,-0.695007,-0.006226,0.980484,-0.302251,-0.084474,-30.057220,-164.641800,-11.364920,,,,,,,,,,,,,,,,,,,,,,,,,,,,,,,,,,,,,,,,,,,,,,,,,,,,,,,,,,,,,,,,,,,,,,
1607717718.722146,1.000000,0.000000,4245.384766,4187.179688,4244.871582,4329.230957,4196.538574,4211.025879,4212.948730,4216.153809,4200.384766,4229.871582,4248.077148,4216.410156,4284.615234,4246.794922,3277.000000,4.000000,,,,0.000000,4.000000,4.000000,4.000000,4.000000,4.000000,4.000000,4.000000,4.000000,4.000000,4.000000,4.000000,4.000000,4.000000,4.000000,100.000000,,,,,,,,,,,,,,,,,,,,,,,,,,,,,,,,,,,,,,,,,,,,,,,,,,,,,,,,,,,,,,,,,,,,,,,,,,,,,,,,,,
1607717718.729944,2.000000,0.000000,4240.641113,4180.000000,4236.922852,4322.179688,4192.436035,4213.077148,4216.666504,4207.051270,4203.461426,4223.461426,4241.282227,4215.512695,4262.948730,4236.153809,3600.000000,4.000000,,,,0.000000,4.000000,4.000000,4.000000,4.000000,4.000000,4.000000,4.000000,4.000000,4.000000,4.000000,4.000000,4.000000,4.000000,4.000000,100.000000,,,,,,,,,,,,,,,,,,,,,,,,,,,,,,,,,,,,,,,,,,,,,,,,,,,,,,,,,,,,,,,,,,,,,,,,,,,,,,,,,,
1607717718.737742,3.000000,0.000000,4235.897461,4177.948730,4232.179688,4324.102539,4197.436035,4220.384766,4220.769043,4205.897461,4206.153809,4217.179688,4228.589844,4207.563965,4247.051270,4226.410156,3612.000000,4.000000,,,,0.000000,4.000000,4.000000,4.000000,4.000000,4.000000,4.000000,4.000000,4.000000,4.000000,4.000000,4.000000,4.000000,4.000000,4.000000,100.000000,,,,,,,,,,,,,,,,,,,,,,,,,,,,,,,,,,,,,,,,,,,,,,,,,,,,,,,,,,,,,,,,,,,,,,,,,,,,,,,,,,
1607717718.745541,4.000000,0.000000,4232.179688,4184.615234,4232.692383,4336.282227,4205.128418,4220.512695,4218.077148,4217.692383,4204.615234,4217.307617,4235.769043,4202.179688,4259.358887,4230.512695,3479.000000,4.000000,,,,0.000000,4.000000,4.000000,4.000000,4.000000,4.000000,4.000000,4.000000,4.000000,4.000000,4.000000,4.000000,4.000000,4.000000,4.000000,100.000000,1.000000,0.000000,0.680247,-0.234741,-0.694336,-0.007629,0.964370,-0.313970,-0.072755,-32.449837,-164.641800,-11.813535,,,,,,,,,,,,,,,,,,,,,,,,,,,,,,,,,,,,,,,,,,,,,,,,,,,,,,,,,,,,,,,,,,,,,,
1607717718.753339,5.000000,0.000000,4232.179688,4178.333496,4233.717773,4333.974121,4205.384766,4215.641113,4217.179688,4215.256348,4203.333496,4222.948730,4246.025879,4202.948730,4270.256348,4231.025879,3499.000000,4.000000,,,,0.000000,4.000000,4.000000,4.000000,4.000000,4.000000,4.000000,4.000000,4.000000,4.000000,4.000000,4.000000,4.000000,4.000000,4.000000,100.000000,,,,,,,,,,,,,,,,,,,,,,,,,,,,,,,,,,,,,,,,,,,,,,,,,,,,,,,,,,,,,,,,,,,,,,,,,,,,,,,,,,
1607717718.761137,6.000000,0.000000,4224.487305,4158.974121,4226.666504,4325.384766,4201.794922,4214.102539,4217.563965,4196.410156,4202.179688,4227.820313,4243.589844,4208.589844,4262.692383,4219.743652,3433.000000,4.000000,,,,0.000000,4.000000,4.000000,4.000000,4.000000,4.000000,4.000000,4.000000,4.000000,4.000000,4.000000,4.000000,4.000000,4.000000,4.000000,100.000000,,,,,,,,,,,,,,,,,,,,,,,,,,,,,,,,,,,,,,,,,,,,,,,,,,,,,,,,,,,,,,,,,,,,,,,,,,,,,,,,,,
1607717718.768935,7.000000,0.000000,4218.205078,4154.230957,4219.743652,4320.256348,4202.563965,4217.820313,4220.128418,4198.717773,4203.205078,4230.512695,4244.358887,4209.615234,4260.000000,4217.307617,3528.000000,4.000000,,,,0.000000,4.000000,4.000000,4.000000,4.000000,4.000000,4.000000,4.000000,4.000000,4.000000,4.000000,4.000000,4.000000,4.000000,4.000000,100.000000,,,,,,,,,,,,,,,,,,,,,,,,,,,,,,,,,,,,,,,,,,,,,,,,,,,,,,,,,,,,,,,,,,,,,,,,,,,,,,,,,,
1607717718.776733,8.000000,0.000000,4218.589844,4153.077148,4216.282227,4318.974121,4200.897461,4216.922852,4221.922852,4214.102539,4203.461426,4231.794922,4245.897461,4203.589844,4262.820313,4220.512695,2914.000000,4.000000,,,,0.000000,4.000000,4.000000,4.000000,4.000000,4.000000,4.000000,4.000000,4.000000,4.000000,4.000000,4.000000,4.000000,4.000000,4.000000,100.000000,2.000000,0.000000,0.680623,-0.236816,-0.693237,-0.009644,0.970718,-0.322759,-0.072267,-30.804913,-164.641800,-10.318151,6.892013,6.324013,2.955172,1.131422,0.351597,19.578386,10.798396,3.692214,1.076649,0.403384,4.509544,3.969345,1.845798,0.915846,0.242261,5.159707,4.560364,1.984729,1.303396,0.834989,1.806515,1.821327,0.658724,0.602165,0.292289,1.131963,2.248947,0.992471,0.948626,0.891903,1.242617,5.412745,1.199702,1.048623,0.353072,1.457349,7.710202,1.115529,1.006120,0.435685,0.828117,1.257801,0.954027,0.432420,0.471058,3.884353,1.370799,1.839278,1.212770,0.671488,8.677651,1.985153,1.359666,1.395539,0.411811,4.631093,2.109019,1.234008,0.587255,0.217076,24.368437,4.852129,2.525069,1.627498,0.519324,6.233486,2.940616,1.542137,0.990269,0.334622
1607717718.784432,9.000000,0.000000,4211.153809,4138.333496,4208.974121,4305.512695,4190.128418,4203.589844,4211.794922,4207.051270,4202.051270,4229.743652,4237.436035,4199.871582,4255.000000,4212.692383,3382.000000,4.000000,,,,0.000000,4.000000,4.000000,4.000000,4.000000,4.000000,4.000000,4.000000,4.000000,4.000000,4.000000,4.000000,4.000000,4.000000,4.000000,100.000000,,,,,,,,,,,,,,,,,,,,,,,,,,,,,,,,,,,,,,,,,,,,,,,,,,,,,,,,,,,,,,,,,,,,,,,,,,,,,,,,,,
1607717718.792229,10.000000,0.000000,4202.692383,4134.102539,4203.717773,4297.051270,4184.358887,4196.282227,4205.641113,4200.769043,4207.436035,4230.256348,4232.436035,4202.820313,4247.692383,4211.922852,3528.000000,4.000000,,,,0.000000,4.000000,4.000000,4.000000,4.000000,4.000000,4.000000,4.000000,4.000000,4.000000,4.000000,4.000000,4.000000,4.000000,4.000000,100.000000,,,,,,,,,,,,,,,,,,,,,,,,,,,,,,,,,,,,,,,,,,,,,,,,,,,,,,,,,,,,,,,,,,,,,,,,,,,,,,,,,,
1607717718.800027,11.000000,0.000000,4202.051270,4139.358887,4201.666504,4307.820313,4185.897461,4204.358887,4216.538574,4217.692383,4212.307617,4231.538574,4234.743652,4202.820313,4246.794922,4220.256348,3379.000000,4.000000,,,,0.000000,4.000000,4.000000,4.000000,4.000000,4.000000,4.000000,4.000000,4.000000,4.000000,4.000000,4.000000,4.000000,4.000000,4.000000,100.000000,,,,,,,,,,,,,,,,,,,,,,,,,,,,,,,,,,,,,,,,,,,,,,,,,,,,,,,,,,,,,,,,,,,,,,,,,,,,,,,,,,
1607717718.807825,12.000000,0.000000,4201.410156,4136.666504,4202.179688,4302.436035,4183.461426,4203.077148,4221.025879,4224.743652,4209.487305,4222.436035,4231.282227,4197.948730,4245.000000,4211.410156,3510.000000,4.000000,,,,0.000000,4.000000,4.000000,4.000000,4.000000,4.000000,4.000000,4.000000,4.000000,4.000000,4.000000,4.000000,4.000000,4.000000,4.000000,100.000000,3.000000,0.000000,0.680946,-0.238831,-0.692200,-0.011475,0.962905,-0.332525,-0.074708,-31.702145,-166.436249,-11.364920,,,,,,,,,,,,,,,,,,,,,,,,,,,,,,,,,,,,,,,,,,,,,,,,,,,,,,,,,,,,,,,,,,,,,,
1607717718.815623,13.000000,0.000000,4196.666504,4136.666504,4206.153809,4298.589844,4187.820313,4202.948730,4217.563965,4215.512695,4211.025879,4215.128418,4229.871582,4196.538574,4243.717773,4198.974121,2771.000000,4.000000,,,,0.000000,4.000000,4.000000,4.000000,4.000000,4.000000,4.000000,4.000000,4.000000,4.000000,4.000000,4.000000,4.000000,4.000000,4.000000,100.000000,,,,,,,,,,,,,,,,,,,,,,,,,,,,,,,,,,,,,,,,,,,,,,,,,,,,,,,,,,,,,,,,,,,,,,,,,,,,,,,,,,
1607717718.823421,14.000000,0.000000,4197.436035,4142.179688,4206.666504,4311.282227,4200.769043,4216.794922,4222.179688,4215.897461,4216.538574,4224.871582,4234.487305,4198.461426,4247.051270,4202.179688,3528.000000,4.000000,,,,0.000000,4.000000,4.000000,4.000000,4.000000,4.000000,4.000000,4.000000,4.000000,4.000000,4.000000,4.000000,4.000000,4.000000,4.000000,100.000000,,,,,,,,,,,,,,,,,,,,,,,,,,,,,,,,,,,,,,,,,,,,,,,,,,,,,,,,,,,,,,,,,,,,,,,,,,,,,,,,,,
1607717718.831219,15.000000,0.000000,4204.358887,4142.692383,4202.948730,4313.077148,4203.077148,4221.282227,4224.487305,4224.230957,4218.974121,4237.692383,4231.025879,4200.000000,4248.205078,4205.256348,3379.000000,4.000000,,,,0.000000,4.000000,4.000000,4.000000,4.000000,4.000000,4.000000,4.000000,4.000000,4.000000,4.000000,4.000000,4.000000,4.000000,4.000000,100.000000,,,,,,,,,,,,,,,,,,,,,,,,,,,,,,,,,,,,,,,,,,,,,,,,,,,,,,,,,,,,,,,,,,,,,,,,,,,,,,,,,,
1607717718.839017,16.000000,0.000000,4201.282227,4138.974121,4199.871582,4304.230957,4196.666504,4213.589844,4214.615234,4224.743652,4218.717773,4231.922852,4219.871582,4190.897461,4238.333496,4197.948730,0.000000,4.000000,,,,0.000000,4.000000,4.000000,4.000000,4.000000,4.000000,4.000000,4.000000,4.000000,4.000000,4.000000,4.000000,4.000000,4.000000,4.000000,100.000000,4.000000,0.000000,0.681171,-0.240234,-0.691467,-0.012878,0.974136,-0.323735,-0.071290,-29.758144,-165.838104,-11.215381,,,,,,,,,,,,,,,,,,,,,,,,,,,,,,,,,,,,,,,,,,,,,,,,,,,,,,,,,,,,,,,,,,,,,,
1607717718.846815,17.000000,0.000000,4178.717773,4126.538574,4186.922852,4294.102539,4187.051270,4200.384766,4196.538574,4205.641113,4204.487305,4206.410156,4198.589844,4173.589844,4218.846191,4179.487305,0.000000,4.000000,,,,0.000000,4.000000,4.000000,4.000000,4.000000,4.000000,4.000000,4.000000,4.000000,4.000000,4.000000,4.000000,4.000000,4.000000,4.000000,100.000000,,,,,,,,,,,,,,,,,,,,,,,,,,,,,,,,,,,,,,,,,,,,,,,,,,,,,,,,,,,,,,,,,,,,,,,,,,,,,,,,,,
1607717718.854513,18.000000,0.000000,4154.487305,4108.333496,4166.666504,4281.410156,4173.077148,4190.000000,4185.897461,4180.512695,4183.205078,4181.025879,4170.769043,4162.307617,4198.333496,4158.077148,0.000000,4.000000,,,,0.000000,4.000000,4.000000,4.000000,4.000000,4.000000,4.000000,4.000000,4.000000,4.000000,4.000000,4.000000,4.000000,4.000000,4.000000,100.000000,,,,,,,,,,,,,,,,,,,,,,,,,,,,,,,,,,,,,,,,,,,,,,,,,,,,,,,,,,,,,,,,,,,,,,,,,,,,,,,,,,
1607717718.862311,19.000000,0.000000,4155.128418,4107.692383,4166.153809,4279.871582,4171.794922,4197.692383,4198.205078,4185.384766,4187.307617,4180.769043,4167.436035,4164.358887,4191.410156,4157.563965,0.000000,4.000000,,,,0.000000,4.000000,4.000000,4.000000,4.000000,4.000000,4.000000,4.000000,4.000000,4.000000,4.000000,4.000000,4.000000,4.000000,4.000000,100.000000,,,,,,,,,,,,,,,,,,,,,,,,,,,,,,,,,,,,,,,,,,,,,,,,,,,,,,,,,,,,,,,,,,,,,,,,,,,,,,,,,,
1607717718.870109,20.000000,0.000000,4171.922852,4128.589844,4187.563965,4302.307617,4188.589844,4219.487305,4221.153809,4215.641113,4209.102539,4201.922852,4191.025879,4180.512695,4205.128418,4180.256348,0.000000,4.000000,,,,0.000000,4.000000,4.000000,4.000000,4.000000,4.000000,4.000000,4.000000,4.000000,4.000000,4.000000,4.000000,4.000000,4.000000,4.000000,100.000000,5.000000,0.000000,0.681337,-0.240784,-0.691101,-0.013489,0.962905,-0.339361,-0.076661,-31.403067,-165.539032,-11.663997,,,,,,,,,,,,,,,,,,,,,,,,,,,,,,,,,,,,,,,,,,,,,,,,,,,,,,,,,,,,,,,,,,,,,,
1607717718.877907,21.000000,0.000000,4184.615234,4146.282227,4209.358887,4324.871582,4204.487305,4228.846191,4234.358887,4232.692383,4220.641113,4219.615234,4215.641113,4199.358887,4229.743652,4200.128418,0.000000,4.000000,,,,0.000000,4.000000,4.000000,4.000000,4.000000,4.000000,4.000000,4.000000,4.000000,4.000000,4.000000,4.000000,4.000000,4.000000,4.000000,100.000000,,,,,,,,,,,,,,,,,,,,,,,,,,,,,,,,,,,,,,,,,,,,,,,,,,,,,,,,,,,,,,,,,,,,,,,,,,,,,,,,,,
1607717718.885705,22.000000,0.000000,4193.461426,4152.436035,4220.769043,4332.563965,4209.102539,4220.769043,4231.538574,4228.461426,4221.153809,4228.333496,4226.153809,4206.153809,4245.641113,4206.282227,0.000000,4.000000,,,,0.000000,4.000000,4.000000,4.000000,4.000000,4.000000,4.000000,4.000000,4.000000,4.000000,4.000000,4.000000,4.000000,4.000000,4.000000,100.000000,,,,,,,,,,,,,,,,,,,,,,,,,,,,,,,,,,,,,,,,,,,,,,,,,,,,,,,,,,,,,,,,,,,,,,,,,,,,,,,,,,
1607717718.893503,23.000000,0.000000,4194.871582,4154.615234,4219.487305,4328.205078,4204.358887,4220.000000,4217.307617,4215.384766,4216.410156,4233.205078,4223.077148,4201.794922,4245.769043,4204.871582,0.000000,4.000000,,,,0.000000,4.000000,4.000000,4.000000,4.000000,4.000000,4.000000,4.000000,4.000000,4.000000,4.000000,4.000000,4.000000,4.000000,4.000000,100.000000,,,,,,,,,,,,,,,,,,,,,,,,,,,,,,,,,,,,,,,,,,,,,,,,,,,,,,,,,,,,,,,,,,,,,,,,,,,,,,,,,,
1607717718.901301,24.000000,0.000000,4193.461426,4157.692383,4219.102539,4328.333496,4203.974121,4233.077148,4215.128418,4212.436035,4218.974121,4236.282227,4222.948730,4202.436035,4243.333496,4209.487305,0.000000,4.000000,,,,0.000000,4.000000,4.000000,4.000000,4.000000,4.000000,4.000000,4.000000,4.000000,4.000000,4.000000,4.000000,4.000000,4.000000,4.000000,100.000000,6.000000,0.000000,0.681542,-0.241882,-0.690491,-0.014709,0.973648,-0.326665,-0.059083,-33.197529,-165.688568,-10.318151,10.779783,7.985767,3.612531,1.217765,0.358173,25.189791,13.664885,4.719357,1.203885,0.419757,5.324876,4.134100,2.036729,0.945430,0.243426,5.905951,5.238781,2.389263,1.284193,0.833531,1.852203,2.102797,0.699270,0.598925,0.307186,1.258490,2.789899,1.101666,1.027045,0.896351,1.358938,6.827898,1.271076,1.148087,0.357831,1.709248,9.814710,1.131635,1.039943,0.405623,0.833680,1.460182,0.800464,0.438791,0.456198,5.030091,1.563581,1.731053,1.297808,0.646796,11.865748,2.365575,1.414113,1.517090,0.461343,5.505682,2.354716,1.289438,0.633583,0.228563,35.561562,7.347758,3.529259,1.767915,0.574090,8.604966,3.940980,1.864455,1.101566,0.338701
1607717718.909099,25.000000,0.000000,4198.077148,4159.487305,4221.666504,4334.102539,4207.051270,4227.563965,4219.615234,4220.512695,4228.077148,4236.538574,4232.692383,4205.769043,4243.974121,4216.666504,0.000000,4.000000,,,,0.000000,4.000000,4.000000,4.000000,4.000000,4.000000,4.000000,4.000000,4.000000,4.000000,4.000000,4.000000,4.000000,4.000000,4.000000,100.000000,,,,,,,,,,,,,,,,,,,,,,,,,,,,,,,,,,,,,,,,,,,,,,,,,,,,,,,,,,,,,,,,,,,,,,,,,,,,,,,,,,
1607717718.916897,26.000000,0.000000,4202.179688,4154.743652,4216.922852,4323.205078,4195.897461,4199.358887,4206.410156,4213.717773,4222.948730,4233.974121,4234.358887,4202.820313,4238.461426,4213.461426,0.000000,4.000000,,,,0.000000,4.000000,4.000000,4.000000,4.000000,4.000000,4.000000,4.000000,4.000000,4.000000,4.000000,4.000000,4.000000,4.000000,4.000000,100.000000,,,,,,,,,,,,,,,,,,,,,,,,,,,,,,,,,,,,,,,,,,,,,,,,,,,,,,,,,,,,,,,,,,,,,,,,,,,,,,,,,,
1607717718.924695,27.000000,0.000000,4198.589844,4154.615234,4212.820313,4316.538574,4188.846191,4199.871582,4200.128418,4201.153809,4210.641113,4227.051270,4230.256348,4203.077148,4231.922852,4211.922852,0.000000,4.000000,,,,0.000000,4.000000,4.000000,4.000000,4.000000,4.000000,4.000000,4.000000,4.000000,4.000000,4.000000,4.000000,4.000000,4.000000,4.000000,100.000000,,,,,,,,,,,,,,,,,,,,,,,,,,,,,,,,,,,,,,,,,,,,,,,,,,,,,,,,,,,,,,,,,,,,,,,,,,,,,,,,,,
1607717718.932392,28.000000,0.000000,4191.282227,4157.692383,4219.358887,4328.589844,4197.563965,4221.153809,4213.846191,4212.563965,4212.179688,4220.128418,4237.307617,4207.307617,4234.230957,4215.769043,0.000000,4.000000,,,,0.000000,4.000000,4.000000,4.000000,4.000000,4.000000,4.000000,4.000000,4.000000,4.000000,4.000000,4.000000,4.000000,4.000000,4.000000,100.000000,7.000000,0.000000,0.681700,-0.242432,-0.690125,-0.015503,0.975113,-0.311528,-0.073243,-29.159990,-166.137177,-9.570458,,,,,,,,,,,,,,,,,,,,,,,,,,,,,,,,,,,,,,,,,,,,,,,,,,,,,,,,,,,,,,,,,,,,,,
1607717718.940190,29.000000,0.000000,4185.384766,4150.256348,4217.436035,4330.128418,4195.384766,4211.922852,4204.615234,4219.743652,4217.436035,4220.000000,4232.563965,4203.974121,4232.820313,4209.487305,0.000000,4.000000,,,,0.000000,4.000000,4.000000,4.000000,4.000000,4.000000,4.000000,4.000000,4.000000,4.000000,4.000000,4.000000,4.000000,4.000000,4.000000,100.000000,,,,,,,,,,,,,,,,,,,,,,,,,,,,,,,,,,,,,,,,,,,,,,,,,,,,,,,,,,,,,,,,,,,,,,,,,,,,,,,,,,
1607717718.947987,30.000000,0.000000,4186.025879,4145.897461,4204.230957,4318.974121,4182.179688,4193.846191,4181.538574,4203.846191,4214.102539,4219.102539,4213.333496,4198.717773,4220.512695,4200.128418,0.000000,4.000000,,,,0.000000,4.000000,4.000000,4.000000,4.000000,4.000000,4.000000,4.000000,4.000000,4.000000,4.000000,4.000000,4.000000,4.000000,4.000000,100.000000,,,,,,,,,,,,,,,,,,,,,,,,,,,,,,,,,,,,,,,,,,,,,,,,,,,,,,,,,,,,,,,,,,,,,,,,,,,,,,,,,,
1607717718.955785,31.000000,0.000000,4189.487305,4148.461426,4201.794922,4314.487305,4183.333496,4200.000000,4189.871582,4204.615234,4211.410156,4216.410156,4210.769043,4200.000000,4212.948730,4200.769043,0.000000,4.000000,,,,0.000000,4.000000,4.000000,4.000000,4.000000,4.000000,4.000000,4.000000,4.000000,4.000000,4.000000,4.000000,4.000000,4.000000,4.000000,100.000000,,,,,,,,,,,,,,,,,,,,,,,,,,,,,,,,,,,,,,,,,,,,,,,,,,,,,,,,,,,,,,,,,,,,,,,,,,,,,,,,,,
1607717718.963582,32.000000,0.000000,4188.333496,4150.384766,4207.948730,4317.179688,4190.769043,4208.077148,4207.563965,4219.230957,4212.179688,4218.589844,4220.512695,4201.922852,4224.615234,4202.307617,0.000000,4.000000,,,,0.000000,4.000000,4.000000,4.000000,4.000000,4.000000,4.000000,4.000000,4.000000,4.000000,4.000000,4.000000,4.000000,4.000000,4.000000,100.000000,8.000000,0.000000,0.681809,-0.243286,-0.689697,-0.016296,0.958022,-0.334478,-0.068849,-31.851683,-166.735336,-10.916305,,,,,,,,,,,,,,,,,,,,,,,,,,,,,,,,,,,,,,,,,,,,,,,,,,,,,,,,,,,,,,,,,,,,,,
1607717718.971380,33.000000,0.000000,4185.384766,4150.000000,4203.077148,4313.846191,4188.846191,4199.743652,4198.461426,4208.333496,4212.307617,4220.512695,4218.077148,4198.205078,4234.487305,4201.153809,0.000000,4.000000,,,,0.000000,4.000000,4.000000,4.000000,4.000000,4.000000,4.000000,4.000000,4.000000,4.000000,4.000000,4.000000,4.000000,4.000000,4.000000,100.000000,,,,,,,,,,,,,,,,,,,,,,,,,,,,,,,,,,,,,,,,,,,,,,,,,,,,,,,,,,,,,,,,,,,,,,,,,,,,,,,,,,
1607717718.979177,34.000000,0.000000,4187.179688,4150.641113,4195.641113,4307.051270,4185.512695,4198.205078,4190.000000,4194.487305,4210.641113,4217.948730,4209.358887,4192.307617,4224.743652,4198.205078,0.000000,4.000000,,,,0.000000,4.000000,4.000000,4.000000,4.000000,4.000000,4.000000,4.000000,4.000000,4.000000,4.000000,4.000000,4.000000,4.000000,4.000000,100.000000,,,,,,,,,,,,,,,,,,,,,,,,,,,,,,,,,,,,,,,,,,,,,,,,,,,,,,,,,,,,,,,,,,,,,,,,,,,,,,,,,,
1607717718.986975,35.000000,0.000000,4190.256348,4152.563965,4199.230957,4312.179688,4186.282227,4202.179688,4200.641113,4202.820313,4206.922852,4212.948730,4209.743652,4187.820313,4218.333496,4190.128418,0.000000,4.000000,,,,0.000000,4.000000,4.000000,4.000000,4.000000,4.000000,4.000000,4.000000,4.000000,4.000000,4.000000,4.000000,4.000000,4.000000,4.000000,100.000000,,,,,,,,,,,,,,,,,,,,,,,,,,,,,,,,,,,,,,,,,,,,,,,,,,,,,,,,,,,,,,,,,,,,,,,,,,,,,,,,,,
1607717718.994673,36.000000,0.000000,4188.589844,4150.256348,4198.077148,4304.615234,4188.205078,4192.692383,4202.563965,4207.307617,4201.410156,4208.205078,4207.051270,4182.563965,4219.615234,4184.743652,0.000000,4.000000,,,,0.000000,4.000000,4.000000,4.000000,4.000000,4.000000,4.000000,4.000000,4.000000,4.000000,4.000000,4.000000,4.000000,4.000000,4.000000,100.000000,9.000000,0.000000,0.682026,-0.243835,-0.689270,-0.017090,0.984390,-0.327153,-0.071778,-32.300297,-166.735336,-9.719997,,,,,,,,,,,,,,,,,,,,,,,,,,,,,,,,,,,,,,,,,,,,,,,,,,,,,,,,,,,,,,,,,,,,,,
1607717719.002471,37.000000,0.000000,4183.205078,4143.974121,4187.563965,4286.538574,4185.256348,4183.846191,4186.922852,4192.436035,4191.282227,4199.487305,4196.410156,4174.358887,4206.410156,4182.948730,0.000000,4.000000,,,,0.000000,4.000000,4.000000,4.000000,4.000000,4.000000,4.000000,4.000000,4.000000,4.000000,4.000000,4.000000,4.000000,4.000000,4.000000,100.000000,,,,,,,,,,,,,,,,,,,,,,,,,,,,,,,,,,,,,,,,,,,,,,,,,,,,,,,,,,,,,,,,,,,,,,,,,,,,,,,,,,
1607717719.010269,38.000000,0.000000,4182.820313,4143.974121,4183.589844,4299.615234,4182.179688,4193.077148,4181.666504,4182.563965,4184.743652,4192.436035,4193.205078,4169.230957,4196.410156,4180.641113,0.000000,4.000000,,,,0.000000,4.000000,4.000000,4.000000,4.000000,4.000000,4.000000,4.000000,4.000000,4.000000,4.000000,4.000000,4.000000,4.000000,4.000000,100.000000,,,,,,,,,,,,,,,,,,,,,,,,,,,,,,,,,,,,,,,,,,,,,,,,,,,,,,,,,,,,,,,,,,,,,,,,,,,,,,,,,,
1607717719.018067,39.000000,0.000000,4186.153809,4155.000000,4186.922852,4310.641113,4188.589844,4204.230957,4197.563965,4189.358887,4192.692383,4201.153809,4198.589844,4178.846191,4207.051270,4183.974121,0.000000,4.000000,,,,0.000000,4.000000,4.000000,4.000000,4.000000,4.000000,4.000000,4.000000,4.000000,4.000000,4.000000,4.000000,4.000000,4.000000,4.000000,100.000000,,,,,,,,,,,,,,,,,,,,,,,,,,,,,,,,,,,,,,,,,,,,,,,,,,,,,,,,,,,,,,,,,,,,,,,,,,,,,,,,,,
1607717719.025865,40.000000,0.000000,4187.051270,4153.974121,4188.077148,4301.794922,4191.666504,4199.487305,4204.743652,4199.230957,4203.461426,4215.128418,4200.512695,4186.538574,4210.128418,4187.436035,0.000000,4.000000,,,,0.000000,4.000000,4.000000,4.000000,4.000000,4.000000,4.000000,4.000000,4.000000,4.000000,4.000000,4.000000,4.000000,4.000000,4.000000,100.000000,10.000000,0.000000,0.682277,-0.244934,-0.688599,-0.018372,0.975601,-0.320317,-0.080568,-30.206760,-164.791336,-11.215381,15.502361,9.312472,4.146713,1.224825,0.368050,28.379826,15.236377,5.350984,1.279708,0.430885,6.289303,4.082871,2.088748,0.910025,0.243918,6.262961,5.386526,2.584026,1.171108,0.770700,1.832462,2.202391,0.705404,0.571855,0.323298,1.418811,3.088040,1.146986,1.078343,0.871197,1.458942,7.622415,1.247022,1.185322,0.362079,1.942184,10.912086,1.214306,1.077451,0.387661,0.847512,1.547975,0.642222,0.438025,0.450969,5.776908,1.652274,1.493961,1.247446,0.597391,14.631754,2.687618,1.450669,1.495388,0.496399,6.281098,2.465244,1.253754,0.626100,0.233223,45.315800,9.939788,4.600932,1.751867,0.613647,11.289071,4.975025,2.197297,1.118540,0.337308
1607717719.033663,41.000000,0.000000,4185.256348,4141.282227,4184.615234,4306.922852,4183.589844,4188.717773,4189.615234,4196.153809,4199.871582,4208.974121,4196.538574,4174.102539,4198.974121,4177.820313,0.000000,4.000000,,,,0.000000,4.000000,4.000000,4.000000,4.000000,4.000000,4.000000,4.000000,4.000000,4.000000,4.000000,4.000000,4.000000,4.000000,4.000000,100.000000,,,,,,,,,,,,,,,,,,,,,,,,,,,,,,,,,,,,,,,,,,,,,,,,,,,,,,,,,,,,,,,,,,,,,,,,,,,,,,,,,,
1607717719.041461,42.000000,0.000000,4182.692383,4143.974121,4183.717773,4312.307617,4178.974121,4183.205078,4183.717773,4191.666504,4188.846191,4192.820313,4189.487305,4164.615234,4197.179688,4168.717773,0.000000,4.000000,,,,0.000000,4.000000,4.000000,4.000000,4.000000,4.000000,4.000000,4.000000,4.000000,4.000000,4.000000,4.000000,4.000000,4.000000,4.000000,100.000000,,,,,,,,,,,,,,,,,,,,,,,,,,,,,,,,,,,,,,,,,,,,,,,,,,,,,,,,,,,,,,,,,,,,,,,,,,,,,,,,,,
1607717719.049259,43.000000,0.000000,4184.487305,4157.307617,4186.922852,4312.563965,4185.256348,4184.871582,4194.102539,4195.897461,4185.256348,4196.666504,4186.025879,4169.615234,4204.358887,4176.025879,0.000000,4.000000,,,,0.000000,4.000000,4.000000,4.000000,4.000000,4.000000,4.000000,4.000000,4.000000,4.000000,4.000000,4.000000,4.000000,4.000000,4.000000,100.000000,,,,,,,,,,,,,,,,,,,,,,,,,,,,,,,,,,,,,,,,,,,,,,,,,,,,,,,,,,,,,,,,,,,,,,,,,,,,,,,,,,
1607717719.057056,44.000000,0.000000,4187.563965,4160.384766,4190.897461,4316.538574,4190.256348,4187.563965,4192.563965,4197.051270,4189.102539,4203.205078,4194.743652,4173.974121,4205.641113,4183.717773,0.000000,4.000000,,,,0.000000,4.000000,4.000000,4.000000,4.000000,4.000000,4.000000,4.000000,4.000000,4.000000,4.000000,4.000000,4.000000,4.000000,4.000000,100.000000,11.000000,0.000000,0.682230,-0.245056,-0.688599,-0.018494,0.955581,-0.320806,-0.079591,-30.206760,-166.735336,-11.963073,,,,,,,,,,,,,,,,,,,,,,,,,,,,,,,,,,,,,,,,,,,,,,,,,,,,,,,,,,,,,,,,,,,,,,
1607717719.064755,45.000000,0.000000,4185.000000,4156.538574,4191.025879,4310.512695,4185.897461,4181.794922,4178.589844,4192.820313,4188.461426,4189.743652,4200.256348,4173.333496,4201.410156,4184.230957,0.000000,4.000000,,,,0.000000,4.000000,4.000000,4.000000,4.000000,4.000000,4.000000,4.000000,4.000000,4.000000,4.000000,4.000000,4.000000,4.000000,4.000000,100.000000,,,,,,,,,,,,,,,,,,,,,,,,,,,,,,,,,,,,,,,,,,,,,,,,,,,,,,,,,,,,,,,,,,,,,,,,,,,,,,,,,,
1607717719.072553,46.000000,0.000000,4183.717773,4161.153809,4191.794922,4313.717773,4184.615234,4179.871582,4178.846191,4188.846191,4183.205078,4180.512695,4190.256348,4173.333496,4198.846191,4185.128418,0.000000,4.000000,,,,0.000000,4.000000,4.000000,4.000000,4.000000,4.000000,4.000000,4.000000,4.000000,4.000000,4.000000,4.000000,4.000000,4.000000,4.000000,100.000000,,,,,,,,,,,,,,,,,,,,,,,,,,,,,,,,,,,,,,,,,,,,,,,,,,,,,,,,,,,,,,,,,,,,,,,,,,,,,,,,,,
1607717719.080351,47.000000,0.000000,4188.974121,4169.487305,4195.897461,4328.717773,4195.641113,4197.179688,4192.820313,4186.538574,4184.102539,4194.871582,4185.641113,4174.487305,4201.922852,4187.692383,0.000000,4.000000,,,,0.000000,4.000000,4.000000,4.000000,4.000000,4.000000,4.000000,4.000000,4.000000,4.000000,4.000000,4.000000,4.000000,4.000000,4.000000,100.000000,,,,,,,,,,,,,,,,,,,,,,,,,,,,,,,,,,,,,,,,,,,,,,,,,,,,,,,,,,,,,,,,,,,,,,,,,,,,,,,,,,
1607717719.088149,48.000000,0.000000,4191.410156,4173.333496,4191.410156,4318.333496,4196.282227,4208.077148,4195.641113,4186.538574,4188.717773,4204.871582,4194.871582,4174.871582,4203.077148,4187.051270,0.000000,4.000000,,,,0.000000,4.000000,4.000000,4.000000,4.000000,4.000000,4.000000,4.000000,4.000000,4.000000,4.000000,4.000000,4.000000,4.000000,4.000000,100.000000,12.000000,0.000000,0.682201,-0.244324,-0.688904,-0.017883,0.976089,-0.309087,-0.084962,-31.403067,-166.735336,-10.467689,,,,,,,,,,,,,,,,,,,,,,,,,,,,,,,,,,,,,,,,,,,,,,,,,,,,,,,,,,,,,,,,,,,,,,
1607717719.095948,49.000000,0.000000,4176.794922,4166.025879,4173.205078,4296.922852,4171.794922,4180.384766,4176.153809,4184.615234,4184.358887,4186.282227,4186.282227,4163.589844,4187.436035,4173.589844,0.000000,4.000000,,,,0.000000,4.000000,4.000000,4.000000,4.000000,4.000000,4.000000,4.000000,4.000000,4.000000,4.000000,4.000000,4.000000,4.000000,4.000000,100.000000,,,,,,,,,,,,,,,,,,,,,,,,,,,,,,,,,,,,,,,,,,,,,,,,,,,,,,,,,,,,,,,,,,,,,,,,,,,,,,,,,,
1607717719.103746,50.000000,0.000000,4165.641113,4162.436035,4165.000000,4293.205078,4165.512695,4162.948730,4169.102539,4180.000000,4178.846191,4175.000000,4172.692383,4155.384766,4178.205078,4166.282227,0.000000,4.000000,,,,0.000000,4.000000,4.000000,4.000000,4.000000,4.000000,4.000000,4.000000,4.000000,4.000000,4.000000,4.000000,4.000000,4.000000,4.000000,100.000000,,,,,,,,,,,,,,,,,,,,,,,,,,,,,,,,,,,,,,,,,,,,,,,,,,,,,,,,,,,,,,,,,,,,,,,,,,,,,,,,,,
1607717719.111544,51.000000,0.000000,4181.794922,4178.205078,4184.487305,4306.025879,4190.256348,4191.153809,4195.384766,4192.179688,4190.512695,4193.461426,4190.000000,4175.000000,4198.205078,4189.487305,0.000000,4.000000,,,,0.000000,4.000000,4.000000,4.000000,4.000000,4.000000,4.000000,4.000000,4.000000,4.000000,4.000000,4.000000,4.000000,4.000000,4.000000,100.000000,,,,,,,,,,,,,,,,,,,,,,,,,,,,,,,,,,,,,,,,,,,,,,,,,,,,,,,,,,,,,,,,,,,,,,,,,,,,,,,,,,
1607717719.119342,52.000000,0.000000,4192.692383,4182.820313,4199.487305,4326.922852,4198.077148,4213.589844,4213.589844,4210.897461,4205.897461,4205.512695,4206.538574,4188.333496,4211.025879,4207.948730,0.000000,4.000000,,,,0.000000,4.000000,4.000000,4.000000,4.000000,4.000000,4.000000,4.000000,4.000000,4.000000,4.000000,4.000000,4.000000,4.000000,4.000000,100.000000,13.000000,0.000000,0.682158,-0.244446,-0.688904,-0.017822,0.987320,-0.312016,-0.068849,-31.253529,-165.389481,-10.617228,,,,,,,,,,,,,,,,,,,,,,,,,,,,,,,,,,,,,,,,,,,,,,,,,,,,,,,,,,,,,,,,,,,,,,
1607717719.127140,53.000000,0.000000,4179.230957,4168.589844,4186.410156,4320.256348,4184.230957,4200.897461,4199.230957,4197.307617,4197.948730,4194.487305,4198.846191,4175.384766,4202.179688,4194.102539,0.000000,4.000000,,,,0.000000,4.000000,4.000000,4.000000,4.000000,4.000000,4.000000,4.000000,4.000000,4.000000,4.000000,4.000000,4.000000,4.000000,4.000000,100.000000,,,,,,,,,,,,,,,,,,,,,,,,,,,,,,,,,,,,,,,,,,,,,,,,,,,,,,,,,,,,,,,,,,,,,,,,,,,,,,,,,,
1607717719.134839,54.000000,0.000000,4169.615234,4166.025879,4171.538574,4293.077148,4177.820313,4187.436035,4186.410156,4179.743652,4185.897461,4186.410156,4192.948730,4166.666504,4194.871582,4177.948730,0.000000,4.000000,,,,0.000000,4.000000,4.000000,4.000000,4.000000,4.000000,4.000000,4.000000,4.000000,4.000000,4.000000,4.000000,4.000000,4.000000,4.000000,100.000000,,,,,,,,,,,,,,,,,,,,,,,,,,,,,,,,,,,,,,,,,,,,,,,,,,,,,,,,,,,,,,,,,,,,,,,,,,,,,,,,,,
1607717719.142637,55.000000,0.000000,4164.871582,4175.512695,4166.282227,4297.179688,4176.922852,4187.948730,4191.153809,4190.000000,4190.000000,4187.051270,4182.692383,4163.846191,4174.102539,4171.282227,0.000000,4.000000,,,,0.000000,4.000000,4.000000,4.000000,4.000000,4.000000,4.000000,4.000000,4.000000,4.000000,4.000000,4.000000,4.000000,4.000000,4.000000,100.000000,,,,,,,,,,,,,,,,,,,,,,,,,,,,,,,,,,,,,,,,,,,,,,,,,,,,,,,,,,,,,,,,,,,,,,,,,,,,,,,,,,
1607717719.150435,56.000000,0.000000,4141.922852,4168.846191,4152.051270,4303.974121,4173.846191,4181.538574,4180.769043,4185.128418,4185.128418,4183.205078,4156.794922,4147.692383,4141.153809,4153.333496,0.000000,4.000000,,,,0.000000,4.000000,4.000000,4.000000,4.000000,4.000000,4.000000,4.000000,4.000000,4.000000,4.000000,4.000000,4.000000,4.000000,4.000000,100.000000,14.000000,0.000000,0.682173,-0.244568,-0.688843,-0.017944,0.967300,-0.324224,-0.078614,-29.758144,-165.539032,-10.019073,19.716831,9.937108,4.402543,1.133681,0.377508,27.993713,14.998192,5.398977,1.262070,0.430313,7.275324,3.772759,1.991089,0.812563,0.237679,6.107554,4.890499,2.497891,0.995223,0.661674,1.733583,2.073401,0.683594,0.518657,0.328297,1.556405,3.019693,1.116930,1.080115,0.821794,1.513412,7.484331,1.129748,1.138015,0.362377,2.099325,10.568572,1.286251,1.090673,0.381122,0.857959,1.482145,0.490209,0.424915,0.448830,5.862442,1.626741,1.210509,1.087882,0.525679,16.122236,2.924699,1.484137,1.330623,0.504586,6.751831,2.396658,1.131757,0.566183,0.227036,50.509163,11.919836,5.479053,1.561808,0.622106,13.538548,5.804842,2.451883,1.029920,0.327663
1607717719.158233,57.000000,0.000000,4114.487305,4142.692383,4137.563965,4279.358887,4170.128418,4165.641113,4160.769043,4160.128418,4173.077148,4180.000000,4147.051270,4134.487305,4127.948730,4131.922852,0.000000,4.000000,,,,0.000000,4.000000,4.000000,4.000000,4.000000,4.000000,4.000000,4.000000,4.000000,4.000000,4.000000,4.000000,4.000000,4.000000,4.000000,100.000000,,,,,,,,,,,,,,,,,,,,,,,,,,,,,,,,,,,,,,,,,,,,,,,,,,,,,,,,,,,,,,,,,,,,,,,,,,,,,,,,,,
1607717719.166031,58.000000,0.000000,4103.205078,4125.128418,4134.230957,4270.384766,4167.436035,4164.615234,4160.512695,4164.871582,4178.974121,4182.051270,4154.871582,4135.897461,4128.333496,4124.743652,0.000000,4.000000,,,,0.000000,4.000000,4.000000,4.000000,4.000000,4.000000,4.000000,4.000000,4.000000,4.000000,4.000000,4.000000,4.000000,4.000000,4.000000,100.000000,,,,,,,,,,,,,,,,,,,,,,,,,,,,,,,,,,,,,,,,,,,,,,,,,,,,,,,,,,,,,,,,,,,,,,,,,,,,,,,,,,
1607717719.173830,59.000000,0.000000,4106.282227,4136.410156,4137.051270,4280.000000,4176.410156,4181.410156,4171.410156,4182.563965,4189.615234,4186.282227,4154.487305,4139.102539,4126.025879,4125.384766,0.000000,4.000000,,,,0.000000,4.000000,4.000000,4.000000,4.000000,4.000000,4.000000,4.000000,4.000000,4.000000,4.000000,4.000000,4.000000,4.000000,4.000000,100.000000,,,,,,,,,,,,,,,,,,,,,,,,,,,,,,,,,,,,,,,,,,,,,,,,,,,,,,,,,,,,,,,,,,,,,,,,,,,,,,,,,,
1607717719.181628,60.000000,0.000000,4115.769043,4157.436035,4143.333496,4275.512695,4187.051270,4186.538574,4174.230957,4174.615234,4188.333496,4187.307617,4157.307617,4141.282227,4129.487305,4124.615234,0.000000,4.000000,,,,0.000000,4.000000,4.000000,4.000000,4.000000,4.000000,4.000000,4.000000,4.000000,4.000000,4.000000,4.000000,4.000000,4.000000,4.000000,100.000000,15.000000,0.000000,0.682227,-0.244568,-0.688782,-0.018250,0.979507,-0.324712,-0.080079,-31.851683,-165.539032,-10.916305,,,,,,,,,,,,,,,,,,,,,,,,,,,,,,,,,,,,,,,,,,,,,,,,,,,,,,,,,,,,,,,,,,,,,,
1607717719.189426,61.000000,0.000000,4121.538574,4156.153809,4151.282227,4288.333496,4183.846191,4181.794922,4176.410156,4166.025879,4183.205078,4182.051270,4165.897461,4146.922852,4131.538574,4125.897461,0.000000,4.000000,,,,0.000000,4.000000,4.000000,4.000000,4.000000,4.000000,4.000000,4.000000,4.000000,4.000000,4.000000,4.000000,4.000000,4.000000,4.000000,100.000000,,,,,,,,,,,,,,,,,,,,,,,,,,,,,,,,,,,,,,,,,,,,,,,,,,,,,,,,,,,,,,,,,,,,,,,,,,,,,,,,,,
1607717719.197224,62.000000,0.000000,4126.922852,4151.153809,4164.615234,4312.563965,4190.897461,4194.871582,4195.769043,4178.717773,4185.256348,4184.615234,4167.820313,4158.846191,4133.333496,4136.410156,0.000000,4.000000,,,,0.000000,4.000000,4.000000,4.000000,4.000000,4.000000,4.000000,4.000000,4.000000,4.000000,4.000000,4.000000,4.000000,4.000000,4.000000,100.000000,,,,,,,,,,,,,,,,,,,,,,,,,,,,,,,,,,,,,,,,,,,,,,,,,,,,,,,,,,,,,,,,,,,,,,,,,,,,,,,,,,
1607717719.205022,63.000000,0.000000,4129.487305,4156.666504,4172.179688,4301.666504,4201.025879,4203.974121,4203.333496,4188.461426,4190.256348,4190.256348,4167.820313,4162.692383,4141.153809,4142.307617,0.000000,4.000000,,,,0.000000,4.000000,4.000000,4.000000,4.000000,4.000000,4.000000,4.000000,4.000000,4.000000,4.000000,4.000000,4.000000,4.000000,4.000000,100.000000,,,,,,,,,,,,,,,,,,,,,,,,,,,,,,,,,,,,,,,,,,,,,,,,,,,,,,,,,,,,,,,,,,,,,,,,,,,,,,,,,,
1607717719.212720,64.000000,0.000000,4129.615234,4156.922852,4163.461426,4299.743652,4193.333496,4197.692383,4190.384766,4185.769043,4192.307617,4187.051270,4171.922852,4152.563965,4141.794922,4136.025879,3390.000000,4.000000,,,,0.000000,4.000000,4.000000,4.000000,4.000000,4.000000,4.000000,4.000000,4.000000,4.000000,4.000000,4.000000,4.000000,4.000000,4.000000,100.000000,16.000000,0.000000,0.682236,-0.244202,-0.688904,-0.018188,0.971206,-0.326665,-0.075685,-32.599373,-164.342712,-10.467689,,,,,,,,,,,,,,,,,,,,,,,,,,,,,,,,,,,,,,,,,,,,,,,,,,,,,,,,,,,,,,,,,,,,,,
1607717719.220518,65.000000,0.000000,4134.615234,4152.179688,4160.128418,4312.820313,4191.410156,4195.000000,4188.461426,4181.153809,4188.974121,4188.589844,4173.077148,4153.333496,4140.128418,4137.307617,3257.000000,4.000000,,,,0.000000,4.000000,4.000000,4.000000,4.000000,4.000000,4.000000,4.000000,4.000000,4.000000,4.000000,4.000000,4.000000,4.000000,4.000000,100.000000,,,,,,,,,,,,,,,,,,,,,,,,,,,,,,,,,,,,,,,,,,,,,,,,,,,,,,,,,,,,,,,,,,,,,,,,,,,,,,,,,,
1607717719.228316,66.000000,0.000000,4135.128418,4151.410156,4172.179688,4292.692383,4197.692383,4195.384766,4197.692383,4186.922852,4186.922852,4200.512695,4167.948730,4162.692383,4142.179688,4143.589844,3602.000000,4.000000,,,,0.000000,4.000000,4.000000,4.000000,4.000000,4.000000,4.000000,4.000000,4.000000,4.000000,4.000000,4.000000,4.000000,4.000000,4.000000,100.000000,,,,,,,,,,,,,,,,,,,,,,,,,,,,,,,,,,,,,,,,,,,,,,,,,,,,,,,,,,,,,,,,,,,,,,,,,,,,,,,,,,
1607717719.236114,67.000000,0.000000,4134.358887,4157.051270,4176.666504,4290.128418,4192.051270,4197.692383,4195.769043,4198.461426,4189.871582,4201.282227,4168.846191,4162.179688,4143.846191,4144.871582,3601.000000,4.000000,,,,0.000000,4.000000,4.000000,4.000000,4.000000,4.000000,4.000000,4.000000,4.000000,4.000000,4.000000,4.000000,4.000000,4.000000,4.000000,100.000000,,,,,,,,,,,,,,,,,,,,,,,,,,,,,,,,,,,,,,,,,,,,,,,,,,,,,,,,,,,,,,,,,,,,,,,,,,,,,,,,,,
1607717719.243912,68.000000,0.000000,4135.897461,4156.282227,4164.358887,4311.025879,4184.358887,4193.974121,4184.615234,4190.897461,4187.307617,4187.692383,4173.333496,4153.717773,4138.589844,4140.256348,3470.000000,4.000000,,,,0.000000,4.000000,4.000000,4.000000,4.000000,4.000000,4.000000,4.000000,4.000000,4.000000,4.000000,4.000000,4.000000,4.000000,4.000000,100.000000,17.000000,0.000000,0.682231,-0.243713,-0.689087,-0.018005,0.967300,-0.318364,-0.067872,-31.403067,-166.286713,-10.019073,,,,,,,,,,,,,,,,,,,,,,,,,,,,,,,,,,,,,,,,,,,,,,,,,,,,,,,,,,,,,,,,,,,,,,
1607717719.251710,69.000000,0.000000,4134.743652,4147.820313,4160.128418,4301.794922,4183.974121,4181.666504,4182.051270,4179.358887,4183.461426,4187.820313,4172.820313,4153.717773,4135.769043,4137.179688,3486.000000,4.000000,,,,0.000000,4.000000,4.000000,4.000000,4.000000,4.000000,4.000000,4.000000,4.000000,4.000000,4.000000,4.000000,4.000000,4.000000,4.000000,100.000000,,,,,,,,,,,,,,,,,,,,,,,,,,,,,,,,,,,,,,,,,,,,,,,,,,,,,,,,,,,,,,,,,,,,,,,,,,,,,,,,,,
1607717719.259508,70.000000,0.000000,4138.846191,4152.179688,4167.563965,4301.025879,4185.897461,4187.820313,4187.179688,4191.538574,4190.641113,4197.948730,4173.974121,4162.179688,4147.563965,4146.282227,3425.000000,4.000000,,,,0.000000,4.000000,4.000000,4.000000,4.000000,4.000000,4.000000,4.000000,4.000000,4.000000,4.000000,4.000000,4.000000,4.000000,4.000000,100.000000,,,,,,,,,,,,,,,,,,,,,,,,,,,,,,,,,,,,,,,,,,,,,,,,,,,,,,,,,,,,,,,,,,,,,,,,,,,,,,,,,,
1607717719.267306,71.000000,0.000000,4141.410156,4154.615234,4172.307617,4310.128418,4190.641113,4203.589844,4198.205078,4206.922852,4198.077148,4194.871582,4170.256348,4163.589844,4149.230957,4152.307617,3522.000000,4.000000,,,,0.000000,4.000000,4.000000,4.000000,4.000000,4.000000,4.000000,4.000000,4.000000,4.000000,4.000000,4.000000,4.000000,4.000000,4.000000,100.000000,,,,,,,,,,,,,,,,,,,,,,,,,,,,,,,,,,,,,,,,,,,,,,,,,,,,,,,,,,,,,,,,,,,,,,,,,,,,,,,,,,
1607717719.275104,72.000000,0.000000,4132.436035,4143.461426,4168.077148,4286.153809,4187.948730,4201.666504,4204.102539,4202.436035,4191.282227,4180.897461,4154.230957,4155.897461,4131.794922,4143.205078,2911.000000,4.000000,,,,0.000000,4.000000,4.000000,4.000000,4.000000,4.000000,4.000000,4.000000,4.000000,4.000000,4.000000,4.000000,4.000000,4.000000,4.000000,100.000000,18.000000,0.000000,0.682253,-0.242981,-0.689331,-0.017700,0.961929,-0.323735,-0.064942,-31.253529,-165.688568,-9.570458,22.112476,9.717649,4.328724,0.986580,0.381393,24.269245,13.094540,4.915121,1.163199,0.416076,8.156971,3.302631,1.815779,0.699138,0.222132,5.682523,3.888071,2.189088,0.819919,0.535804,1.592516,1.755395,0.672153,0.457583,0.316466,1.644674,2.601888,1.042127,1.031988,0.764270,1.504274,6.468016,0.973181,1.028261,0.360571,2.172740,8.887674,1.313526,1.074943,0.388351,0.880493,1.294276,0.386114,0.411208,0.440111,5.313160,1.550028,1.004749,0.898467,0.442515,15.990522,3.101697,1.546119,1.105122,0.484626,6.802031,2.195319,0.979346,0.488862,0.210315,49.461727,12.729630,5.990984,1.280800,0.593662,14.717872,6.261119,2.582571,0.887356,0.310138
1607717719.282802,73.000000,0.000000,4131.666504,4145.512695,4164.743652,4285.256348,4185.641113,4205.384766,4202.051270,4197.307617,4185.128418,4180.641113,4147.179688,4151.794922,4128.974121,4135.641113,3383.000000,4.000000,,,,0.000000,4.000000,4.000000,4.000000,4.000000,4.000000,4.000000,4.000000,4.000000,4.000000,4.000000,4.000000,4.000000,4.000000,4.000000,100.000000,,,,,,,,,,,,,,,,,,,,,,,,,,,,,,,,,,,,,,,,,,,,,,,,,,,,,,,,,,,,,,,,,,,,,,,,,,,,,,,,,,
1607717719.290601,74.000000,0.000000,4139.358887,4156.282227,4167.820313,4316.922852,4195.512695,4217.179688,4205.256348,4200.000000,4186.282227,4192.051270,4158.333496,4152.948730,4140.769043,4139.102539,3530.000000,4.000000,,,,0.000000,4.000000,4.000000,4.000000,4.000000,4.000000,4.000000,4.000000,4.000000,4.000000,4.000000,4.000000,4.000000,4.000000,4.000000,100.000000,,,,,,,,,,,,,,,,,,,,,,,,,,,,,,,,,,,,,,,,,,,,,,,,,,,,,,,,,,,,,,,,,,,,,,,,,,,,,,,,,,
1607717719.298399,75.000000,0.000000,4136.922852,4156.153809,4172.563965,4312.436035,4196.153809,4206.538574,4203.589844,4197.051270,4184.615234,4189.487305,4166.538574,4154.743652,4139.615234,4144.230957,3375.000000,4.000000,,,,0.000000,4.000000,4.000000,4.000000,4.000000,4.000000,4.000000,4.000000,4.000000,4.000000,4.000000,4.000000,4.000000,4.000000,4.000000,100.000000,,,,,,,,,,,,,,,,,,,,,,,,,,,,,,,,,,,,,,,,,,,,,,,,,,,,,,,,,,,,,,,,,,,,,,,,,,,,,,,,,,
1607717719.306197,76.000000,0.000000,4146.410156,4164.230957,4183.846191,4309.871582,4191.922852,4197.820313,4200.769043,4200.256348,4191.025879,4192.563965,4176.025879,4166.794922,4143.333496,4151.794922,3507.000000,4.000000,,,,0.000000,4.000000,4.000000,4.000000,4.000000,4.000000,4.000000,4.000000,4.000000,4.000000,4.000000,4.000000,4.000000,4.000000,4.000000,100.000000,19.000000,0.000000,0.682162,-0.242737,-0.689514,-0.017456,0.982925,-0.310063,-0.071290,-31.851683,-164.791336,-10.467689,,,,,,,,,,,,,,,,,,,,,,,,,,,,,,,,,,,,,,,,,,,,,,,,,,,,,,,,,,,,,,,,,,,,,,
1607717719.313995,77.000000,0.000000,4162.051270,4174.871582,4189.102539,4334.615234,4201.025879,4202.948730,4201.282227,4202.692383,4200.256348,4210.128418,4185.897461,4179.743652,4155.256348,4157.820313,2769.000000,4.000000,,,,0.000000,4.000000,4.000000,4.000000,4.000000,4.000000,4.000000,4.000000,4.000000,4.000000,4.000000,4.000000,4.000000,4.000000,4.000000,100.000000,,,,,,,,,,,,,,,,,,,,,,,,,,,,,,,,,,,,,,,,,,,,,,,,,,,,,,,,,,,,,,,,,,,,,,,,,,,,,,,,,,
1607717719.321793,78.000000,0.000000,4158.077148,4172.051270,4185.384766,4326.025879,4207.307617,4202.820313,4197.692383,4192.820313,4200.128418,4217.563965,4183.205078,4176.538574,4160.897461,4154.871582,3530.000000,4.000000,,,,0.000000,4.000000,4.000000,4.000000,4.000000,4.000000,4.000000,4.000000,4.000000,4.000000,4.000000,4.000000,4.000000,4.000000,4.000000,100.000000,,,,,,,,,,,,,,,,,,,,,,,,,,,,,,,,,,,,,,,,,,,,,,,,,,,,,,,,,,,,,,,,,,,,,,,,,,,,,,,,,,
1607717719.329592,79.000000,0.000000,4156.153809,4172.820313,4185.769043,4305.384766,4203.333496,4203.333496,4197.820313,4188.974121,4201.666504,4213.205078,4181.794922,4173.589844,4168.077148,4156.410156,3375.000000,4.000000,,,,0.000000,4.000000,4.000000,4.000000,4.000000,4.000000,4.000000,4.000000,4.000000,4.000000,4.000000,4.000000,4.000000,4.000000,4.000000,100.000000,,,,,,,,,,,,,,,,,,,,,,,,,,,,,,,,,,,,,,,,,,,,,,,,,,,,,,,,,,,,,,,,,,,,,,,,,,,,,,,,,,
1607717719.337390,80.000000,0.000000,4158.333496,4176.025879,4182.179688,4321.282227,4198.461426,4206.025879,4200.256348,4195.512695,4201.282227,4210.512695,4183.077148,4170.256348,4166.666504,4153.077148,3507.000000,4.000000,,,,0.000000,4.000000,4.000000,4.000000,4.000000,4.000000,4.000000,4.000000,4.000000,4.000000,4.000000,4.000000,4.000000,4.000000,4.000000,100.000000,20.000000,0.000000,0.682058,-0.241699,-0.690002,-0.016602,0.974136,-0.315435,-0.073243,-30.057220,-166.137177,-10.318151,,,,,,,,,,,,,,,,,,,,,,,,,,,,,,,,,,,,,,,,,,,,,,,,,,,,,,,,,,,,,,,,,,,,,,
1607717719.345188,81.000000,0.000000,4148.846191,4172.563965,4169.615234,4334.615234,4192.563965,4203.461426,4191.025879,4185.000000,4187.948730,4198.205078,4174.358887,4158.333496,4159.743652,4140.256348,2769.000000,4.000000,,,,0.000000,4.000000,4.000000,4.000000,4.000000,4.000000,4.000000,4.000000,4.000000,4.000000,4.000000,4.000000,4.000000,4.000000,4.000000,100.000000,,,,,,,,,,,,,,,,,,,,,,,,,,,,,,,,,,,,,,,,,,,,,,,,,,,,,,,,,,,,,,,,,,,,,,,,,,,,,,,,,,
1607717719.352886,82.000000,0.000000,4136.538574,4160.256348,4160.128418,4309.487305,4185.512695,4195.256348,4176.666504,4162.948730,4177.820313,4183.461426,4159.358887,4150.512695,4152.436035,4133.077148,3530.000000,4.000000,,,,0.000000,4.000000,4.000000,4.000000,4.000000,4.000000,4.000000,4.000000,4.000000,4.000000,4.000000,4.000000,4.000000,4.000000,4.000000,100.000000,,,,,,,,,,,,,,,,,,,,,,,,,,,,,,,,,,,,,,,,,,,,,,,,,,,,,,,,,,,,,,,,,,,,,,,,,,,,,,,,,,
1607717719.360684,83.000000,0.000000,4130.512695,4140.641113,4161.410156,4291.025879,4182.436035,4192.179688,4180.769043,4170.641113,4185.256348,4191.538574,4155.641113,4151.666504,4143.717773,4132.820313,3375.000000,4.000000,,,,0.000000,4.000000,4.000000,4.000000,4.000000,4.000000,4.000000,4.000000,4.000000,4.000000,4.000000,4.000000,4.000000,4.000000,4.000000,100.000000,,,,,,,,,,,,,,,,,,,,,,,,,,,,,,,,,,,,,,,,,,,,,,,,,,,,,,,,,,,,,,,,,,,,,,,,,,,,,,,,,,
1607717719.368483,84.000000,0.000000,4142.307617,4151.282227,4168.717773,4307.307617,4184.871582,4196.538574,4190.000000,4186.025879,4185.256348,4197.948730,4167.563965,4154.743652,4151.153809,4141.922852,3507.000000,4.000000,,,,0.000000,4.000000,4.000000,4.000000,4.000000,4.000000,4.000000,4.000000,4.000000,4.000000,4.000000,4.000000,4.000000,4.000000,4.000000,100.000000,21.000000,0.000000,0.681807,-0.240906,-0.690552,-0.015564,0.969253,-0.323247,-0.074708,-31.851683,-165.539032,-11.215381,,,,,,,,,,,,,,,,,,,,,,,,,,,,,,,,,,,,,,,,,,,,,,,,,,,,,,,,,,,,,,,,,,,,,,
1607717719.376281,85.000000,0.000000,4163.205078,4188.589844,4173.333496,4315.769043,4188.589844,4192.820313,4180.512695,4174.743652,4173.589844,4186.282227,4175.256348,4156.410156,4172.179688,4154.615234,2769.000000,4.000000,,,,0.000000,4.000000,4.000000,4.000000,4.000000,4.000000,4.000000,4.000000,4.000000,4.000000,4.000000,4.000000,4.000000,4.000000,4.000000,100.000000,,,,,,,,,,,,,,,,,,,,,,,,,,,,,,,,,,,,,,,,,,,,,,,,,,,,,,,,,,,,,,,,,,,,,,,,,,,,,,,,,,
1607717719.384079,86.000000,0.000000,4163.846191,4191.282227,4170.000000,4307.563965,4183.205078,4185.384766,4170.000000,4159.230957,4171.922852,4179.358887,4167.820313,4155.384766,4174.358887,4156.025879,3530.000000,4.000000,,,,0.000000,4.000000,4.000000,4.000000,4.000000,4.000000,4.000000,4.000000,4.000000,4.000000,4.000000,4.000000,4.000000,4.000000,4.000000,100.000000,,,,,,,,,,,,,,,,,,,,,,,,,,,,,,,,,,,,,,,,,,,,,,,,,,,,,,,,,,,,,,,,,,,,,,,,,,,,,,,,,,
1607717719.391877,87.000000,0.000000,4157.436035,4173.589844,4172.820313,4315.769043,4183.461426,4196.025879,4178.846191,4164.102539,4182.948730,4190.641113,4171.025879,4161.025879,4165.128418,4158.461426,3375.000000,4.000000,,,,0.000000,4.000000,4.000000,4.000000,4.000000,4.000000,4.000000,4.000000,4.000000,4.000000,4.000000,4.000000,4.000000,4.000000,4.000000,100.000000,,,,,,,,,,,,,,,,,,,,,,,,,,,,,,,,,,,,,,,,,,,,,,,,,,,,,,,,,,,,,,,,,,,,,,,,,,,,,,,,,,
1607717719.399675,88.000000,0.000000,4168.974121,4180.000000,4184.487305,4316.794922,4195.512695,4203.461426,4194.230957,4185.641113,4193.077148,4202.692383,4188.717773,4170.769043,4169.487305,4170.897461,3507.000000,4.000000,,,,0.000000,4.000000,4.000000,4.000000,4.000000,4.000000,4.000000,4.000000,4.000000,4.000000,4.000000,4.000000,4.000000,4.000000,4.000000,100.000000,22.000000,0.000000,0.681614,-0.240112,-0.691040,-0.014587,0.981460,-0.314458,-0.079103,-32.001221,-165.688568,-10.318151,21.967564,8.724291,3.997554,0.850931,0.375015,18.677799,10.213335,4.143508,1.028414,0.392401,8.803894,2.807724,1.676927,0.626929,0.201598,5.215338,2.712269,1.842028,0.706607,0.429486,1.468062,1.346305,0.707564,0.415282,0.292093,1.663976,1.980964,0.976770,0.955868,0.718772,1.432913,4.949338,0.874682,0.907421,0.366622,2.168150,6.440631,1.323797,1.042044,0.413146,0.921508,1.056158,0.376330,0.410500,0.417973,4.377441,1.498018,0.970560,0.757126,0.367210,14.448623,3.232301,1.669375,0.930067,0.444437,6.472367,1.940391,0.874204,0.440455,0.189017,42.694229,12.107354,6.089527,1.038445,0.534607,14.592454,6.245943,2.596879,0.767358,0.288697
1607717719.407474,89.000000,0.000000,4175.897461,4186.666504,4184.487305,4298.461426,4195.512695,4189.871582,4195.384766,4202.692383,4199.487305,4200.512695,4191.666504,4170.000000,4172.179688,4168.974121,2769.000000,4.000000,,,,0.000000,4.000000,4.000000,4.000000,4.000000,4.000000,4.000000,4.000000,4.000000,4.000000,4.000000,4.000000,4.000000,4.000000,4.000000,100.000000,,,,,,,,,,,,,,,,,,,,,,,,,,,,,,,,,,,,,,,,,,,,,,,,,,,,,,,,,,,,,,,,,,,,,,,,,,,,,,,,,,
1607717719.415272,90.000000,0.000000,4170.000000,4181.153809,4175.897461,4308.717773,4187.948730,4193.589844,4188.717773,4200.128418,4199.743652,4197.563965,4182.307617,4166.538574,4165.897461,4155.641113,3530.000000,4.000000,,,,0.000000,4.000000,4.000000,4.000000,4.000000,4.000000,4.000000,4.000000,4.000000,4.000000,4.000000,4.000000,4.000000,4.000000,4.000000,100.000000,,,,,,,,,,,,,,,,,,,,,,,,,,,,,,,,,,,,,,,,,,,,,,,,,,,,,,,,,,,,,,,,,,,,,,,,,,,,,,,,,,
1607717719.423070,91.000000,0.000000,4166.282227,4180.384766,4171.538574,4323.205078,4186.153809,4204.871582,4185.897461,4185.641113,4190.000000,4200.512695,4175.641113,4164.871582,4162.563965,4155.000000,3375.000000,4.000000,,,,0.000000,4.000000,4.000000,4.000000,4.000000,4.000000,4.000000,4.000000,4.000000,4.000000,4.000000,4.000000,4.000000,4.000000,4.000000,100.000000,,,,,,,,,,,,,,,,,,,,,,,,,,,,,,,,,,,,,,,,,,,,,,,,,,,,,,,,,,,,,,,,,,,,,,,,,,,,,,,,,,
1607717719.430767,92.000000,0.000000,4157.307617,4173.717773,4167.948730,4297.436035,4179.871582,4190.384766,4185.256348,4180.769043,4185.256348,4199.102539,4169.487305,4156.025879,4156.666504,4155.512695,3507.000000,4.000000,,,,0.000000,4.000000,4.000000,4.000000,4.000000,4.000000,4.000000,4.000000,4.000000,4.000000,4.000000,4.000000,4.000000,4.000000,4.000000,100.000000,23.000000,0.000000,0.681658,-0.239990,-0.691040,-0.014526,0.966323,-0.331060,-0.086915,-31.702145,-166.436249,-10.318151,,,,,,,,,,,,,,,,,,,,,,,,,,,,,,,,,,,,,,,,,,,,,,,,,,,,,,,,,,,,,,,,,,,,,,
1607717719.438563,93.000000,0.000000,4151.922852,4166.794922,4168.205078,4290.769043,4176.025879,4182.692383,4186.025879,4183.974121,4186.794922,4187.692383,4167.820313,4154.358887,4152.948730,4152.563965,2769.000000,4.000000,,,,0.000000,4.000000,4.000000,4.000000,4.000000,4.000000,4.000000,4.000000,4.000000,4.000000,4.000000,4.000000,4.000000,4.000000,4.000000,100.000000,,,,,,,,,,,,,,,,,,,,,,,,,,,,,,,,,,,,,,,,,,,,,,,,,,,,,,,,,,,,,,,,,,,,,,,,,,,,,,,,,,
1607717719.446360,94.000000,0.000000,4160.128418,4178.333496,4176.410156,4322.179688,4183.717773,4196.538574,4191.538574,4190.641113,4188.461426,4184.102539,4172.820313,4166.153809,4159.358887,4157.692383,3530.000000,4.000000,,,,0.000000,4.000000,4.000000,4.000000,4.000000,4.000000,4.000000,4.000000,4.000000,4.000000,4.000000,4.000000,4.000000,4.000000,4.000000,100.000000,,,,,,,,,,,,,,,,,,,,,,,,,,,,,,,,,,,,,,,,,,,,,,,,,,,,,,,,,,,,,,,,,,,,,,,,,,,,,,,,,,
1607717719.454156,95.000000,0.000000,4169.743652,4188.974121,4184.358887,4324.615234,4193.461426,4202.948730,4205.256348,4203.846191,4195.128418,4193.461426,4180.256348,4170.512695,4166.666504,4166.922852,3375.000000,4.000000,,,,0.000000,4.000000,4.000000,4.000000,4.000000,4.000000,4.000000,4.000000,4.000000,4.000000,4.000000,4.000000,4.000000,4.000000,4.000000,100.000000,,,,,,,,,,,,,,,,,,,,,,,,,,,,,,,,,,,,,,,,,,,,,,,,,,,,,,,,,,,,,,,,,,,,,,,,,,,,,,,,,,
1607717719.461854,96.000000,0.000000,4171.282227,4184.871582,4187.436035,4304.487305,4198.846191,4202.051270,4217.179688,4215.256348,4201.922852,4201.282227,4182.820313,4169.230957,4162.563965,4171.794922,3507.000000,4.000000,,,,0.000000,4.000000,4.000000,4.000000,4.000000,4.000000,4.000000,4.000000,4.000000,4.000000,4.000000,4.000000,4.000000,4.000000,4.000000,100.000000,24.000000,0.000000,0.681640,-0.239868,-0.691101,-0.014465,0.960464,-0.316899,-0.092287,-29.758144,-165.838104,-11.215381,,,,,,,,,,,,,,,,,,,,,,,,,,,,,,,,,,,,,,,,,,,,,,,,,,,,,,,,,,,,,,,,,,,,,,
1607717719.469652,97.000000,0.000000,4161.410156,4182.820313,4183.846191,4310.000000,4195.641113,4205.000000,4215.641113,4214.743652,4199.102539,4197.179688,4173.333496,4166.922852,4154.358887,4166.922852,2769.000000,4.000000,,,,0.000000,4.000000,4.000000,4.000000,4.000000,4.000000,4.000000,4.000000,4.000000,4.000000,4.000000,4.000000,4.000000,4.000000,4.000000,100.000000,,,,,,,,,,,,,,,,,,,,,,,,,,,,,,,,,,,,,,,,,,,,,,,,,,,,,,,,,,,,,,,,,,,,,,,,,,,,,,,,,,
1607717719.477450,98.000000,0.000000,4150.384766,4181.025879,4175.512695,4315.512695,4185.641113,4201.153809,4204.743652,4207.051270,4190.384766,4189.102539,4166.025879,4160.641113,4153.974121,4156.153809,3530.000000,4.000000,,,,0.000000,4.000000,4.000000,4.000000,4.000000,4.000000,4.000000,4.000000,4.000000,4.000000,4.000000,4.000000,4.000000,4.000000,4.000000,100.000000,,,,,,,,,,,,,,,,,,,,,,,,,,,,,,,,,,,,,,,,,,,,,,,,,,,,,,,,,,,,,,,,,,,,,,,,,,,,,,,,,,
1607717719.485248,99.000000,0.000000,4151.538574,4173.461426,4174.102539,4296.794922,4183.461426,4197.820313,4196.794922,4204.358887,4185.128418,4185.256348,4169.358887,4160.128418,4156.410156,4153.846191,3375.000000,4.000000,,,,0.000000,4.000000,4.000000,4.000000,4.000000,4.000000,4.000000,4.000000,4.000000,4.000000,4.000000,4.000000,4.000000,4.000000,4.000000,100.000000,,,,,,,,,,,,,,,,,,,,,,,,,,,,,,,,,,,,,,,,,,,,,,,,,,,,,,,,,,,,,,,,,,,,,,,,,,,,,,,,,,
1607717719.493046,100.000000,0.000000,4149.230957,4166.538574,4173.077148,4284.230957,4178.461426,4198.077148,4188.589844,4195.897461,4183.077148,4183.717773,4163.974121,4160.000000,4150.256348,4155.512695,3507.000000,4.000000,,,,0.000000,4.000000,4.000000,4.000000,4.000000,4.000000,4.000000,4.000000,4.000000,4.000000,4.000000,4.000000,4.000000,4.000000,4.000000,100.000000,25.000000,0.000000,0.681624,-0.239746,-0.691162,-0.014343,0.966323,-0.312993,-0.072755,-31.253529,-165.389481,-10.318151,,,,,,,,,,,,,,,,,,,,,,,,,,,,,,,,,,,,,,,,,,,,,,,,,,,,,,,,,,,,,,,,,,,,,,
1607717719.500844,101.000000,0.000000,4145.128418,4168.974121,4164.615234,4300.000000,4167.948730,4191.410156,4181.282227,4185.897461,4184.487305,4185.256348,4157.051270,4153.846191,4144.358887,4150.769043,2769.000000,4.000000,,,,0.000000,4.000000,4.000000,4.000000,4.000000,4.000000,4.000000,4.000000,4.000000,4.000000,4.000000,4.000000,4.000000,4.000000,4.000000,100.000000,,,,,,,,,,,,,,,,,,,,,,,,,,,,,,,,,,,,,,,,,,,,,,,,,,,,,,,,,,,,,,,,,,,,,,,,,,,,,,,,,,
1607717719.508642,102.000000,0.000000,4156.922852,4178.589844,4164.230957,4314.102539,4174.487305,4189.615234,4184.487305,4193.589844,4185.384766,4183.589844,4163.077148,4150.897461,4148.974121,4150.256348,3530.000000,4.000000,,,,0.000000,4.000000,4.000000,4.000000,4.000000,4.000000,4.000000,4.000000,4.000000,4.000000,4.000000,4.000000,4.000000,4.000000,4.000000,100.000000,,,,,,,,,,,,,,,,,,,,,,,,,,,,,,,,,,,,,,,,,,,,,,,,,,,,,,,,,,,,,,,,,,,,,,,,,,,,,,,,,,
1607717719.516440,103.000000,0.000000,4167.307617,4185.641113,4175.897461,4305.641113,4186.153809,4199.743652,4185.641113,4200.512695,4183.205078,4178.461426,4171.282227,4155.384766,4157.307617,4155.897461,3375.000000,4.000000,,,,0.000000,4.000000,4.000000,4.000000,4.000000,4.000000,4.000000,4.000000,4.000000,4.000000,4.000000,4.000000,4.000000,4.000000,4.000000,100.000000,,,,,,,,,,,,,,,,,,,,,,,,,,,,,,,,,,,,,,,,,,,,,,,,,,,,,,,,,,,,,,,,,,,,,,,,,,,,,,,,,,
