title:Parker_StroopTrial_1, start timestamp:1607716083.273210, stop timestamp:1607716136.809061, headset type:EPOCPLUS, headset serial:4A2C14BB, headset firmware:634, channels:120, sampling rate:eeg_128;mot_32;pow_8, samples:6874      , version:2.1, cqMode:0
Timestamp,EEG.Counter,EEG.Interpolated,EEG.AF3,EEG.F7,EEG.F3,EEG.FC5,EEG.T7,EEG.P7,EEG.O1,EEG.O2,EEG.P8,EEG.T8,EEG.FC6,EEG.F4,EEG.F8,EEG.AF4,EEG.RawCq,EEG.Battery,MarkerIndex,MarkerType,MarkerValueInt,EEG.MarkerHardware,CQ.AF3,CQ.F7,CQ.F3,CQ.FC5,CQ.T7,CQ.P7,CQ.O1,CQ.O2,CQ.P8,CQ.T8,CQ.FC6,CQ.F4,CQ.F8,CQ.AF4,CQ.Overall,MOT.CounterMems,MOT.InterpolatedMems,MOT.Q0,MOT.Q1,MOT.Q2,MOT.Q3,MOT.AccX,MOT.AccY,MOT.AccZ,MOT.MagX,MOT.MagY,MOT.MagZ,POW.AF3.Theta,POW.AF3.Alpha,POW.AF3.BetaL,POW.AF3.BetaH,POW.AF3.Gamma,POW.F7.Theta,POW.F7.Alpha,POW.F7.BetaL,POW.F7.BetaH,POW.F7.Gamma,POW.F3.Theta,POW.F3.Alpha,POW.F3.BetaL,POW.F3.BetaH,POW.F3.Gamma,POW.FC5.Theta,POW.FC5.Alpha,POW.FC5.BetaL,POW.FC5.BetaH,POW.FC5.Gamma,POW.T7.Theta,POW.T7.Alpha,POW.T7.BetaL,POW.T7.BetaH,POW.T7.Gamma,POW.P7.Theta,POW.P7.Alpha,POW.P7.BetaL,POW.P7.BetaH,POW.P7.Gamma,POW.O1.Theta,POW.O1.Alpha,POW.O1.BetaL,POW.O1.BetaH,POW.O1.Gamma,POW.O2.Theta,POW.O2.Alpha,POW.O2.BetaL,POW.O2.BetaH,POW.O2.Gamma,POW.P8.Theta,POW.P8.Alpha,POW.P8.BetaL,POW.P8.BetaH,POW.P8.Gamma,POW.T8.Theta,POW.T8.Alpha,POW.T8.BetaL,POW.T8.BetaH,POW.T8.Gamma,POW.FC6.Theta,POW.FC6.Alpha,POW.FC6.BetaL,POW.FC6.BetaH,POW.FC6.Gamma,POW.F4.Theta,POW.F4.Alpha,POW.F4.BetaL,POW.F4.BetaH,POW.F4.Gamma,POW.F8.Theta,POW.F8.Alpha,POW.F8.BetaL,POW.F8.BetaH,POW.F8.Gamma,POW.AF4.Theta,POW.AF4.Alpha,POW.AF4.BetaL,POW.AF4.BetaH,POW.AF4.Gamma
1607716083.273210,124.000000,0.000000,4244.743652,4244.871582,4220.897461,4247.179688,4211.282227,4209.487305,4206.538574,4203.205078,4190.769043,4223.077148,4218.974121,4188.974121,4228.333496,4232.948730,3515.000000,4.000000,,,,0.000000,4.000000,4.000000,4.000000,4.000000,4.000000,4.000000,4.000000,4.000000,4.000000,4.000000,4.000000,4.000000,4.000000,4.000000,100.000000,31.000000,0.000000,0.642311,-0.084412,-0.752686,0.117371,0.982437,-0.301274,-0.147463,-32.898453,-166.436249,-9.121843,,,,,,,,,,,,,,,,,,,,,,,,,,,,,,,,,,,,,,,,,,,,,,,,,,,,,,,,,,,,,,,,,,,,,,
1607716083.280904,125.000000,0.000000,4248.077148,4241.666504,4215.384766,4235.000000,4201.410156,4200.256348,4203.461426,4202.307617,4190.128418,4217.692383,4205.384766,4188.077148,4227.948730,4226.025879,3011.000000,4.000000,,,,0.000000,4.000000,4.000000,4.000000,4.000000,4.000000,4.000000,4.000000,4.000000,4.000000,4.000000,4.000000,4.000000,4.000000,4.000000,100.000000,,,,,,,,,,,,,,,,,,,,,,,,,,,,,,,,,,,,,,,,,,,,,,,,,,,,,,,,,,,,,,,,,,,,,,,,,,,,,,,,,,
1607716083.288601,126.000000,0.000000,4237.051270,4229.230957,4206.794922,4237.436035,4190.128418,4192.948730,4198.461426,4199.615234,4184.102539,4211.410156,4199.743652,4184.615234,4215.769043,4215.128418,3528.000000,4.000000,,,,0.000000,4.000000,4.000000,4.000000,4.000000,4.000000,4.000000,4.000000,4.000000,4.000000,4.000000,4.000000,4.000000,4.000000,4.000000,100.000000,,,,,,,,,,,,,,,,,,,,,,,,,,,,,,,,,,,,,,,,,,,,,,,,,,,,,,,,,,,,,,,,,,,,,,,,,,,,,,,,,,
1607716083.296398,127.000000,0.000000,4232.948730,4228.333496,4210.769043,4242.692383,4198.461426,4190.000000,4198.077148,4199.871582,4183.846191,4211.922852,4203.205078,4185.384766,4216.794922,4218.205078,58.000000,4.000000,,,,0.000000,4.000000,4.000000,4.000000,4.000000,4.000000,4.000000,4.000000,4.000000,4.000000,4.000000,4.000000,4.000000,4.000000,4.000000,100.000000,,,,,,,,,,,,,16.582798,4.713918,1.617005,0.795188,0.345531,60.390751,9.907936,3.205898,1.137532,0.336286,6.823785,2.178318,1.056213,0.702645,0.316011,11.575349,3.496180,1.015554,0.670820,0.374758,2.342360,1.309257,0.487718,0.750095,0.338524,0.926200,0.575325,0.200798,0.847458,0.434410,1.464562,1.071260,0.296242,0.839879,0.467308,3.316124,0.906019,0.561305,1.231122,0.346806,1.494521,0.520497,0.624986,0.728886,0.416573,3.751830,1.913417,0.745519,1.118792,0.711689,2.634640,2.540424,0.498111,0.761137,0.325642,3.222442,1.542268,0.503062,0.520998,0.269622,5.365255,7.976809,0.915396,0.939154,0.566102,5.308449,2.234023,1.083220,0.773265,0.311846
1607716083.304195,0.000000,0.000000,4236.025879,4232.692383,4210.000000,4232.563965,4206.666504,4187.692383,4196.538574,4200.897461,4185.512695,4210.384766,4200.641113,4186.794922,4225.000000,4220.897461,3395.000000,4.000000,,,,0.000000,4.000000,4.000000,4.000000,4.000000,4.000000,4.000000,4.000000,4.000000,4.000000,4.000000,4.000000,4.000000,4.000000,4.000000,100.000000,0.000000,0.000000,0.642260,-0.084167,-0.752747,0.117432,0.967300,-0.298344,-0.146487,-30.356298,-163.445480,-10.318151,,,,,,,,,,,,,,,,,,,,,,,,,,,,,,,,,,,,,,,,,,,,,,,,,,,,,,,,,,,,,,,,,,,,,,
1607716083.311993,1.000000,0.000000,4240.512695,4232.948730,4210.256348,4232.692383,4204.487305,4188.846191,4195.512695,4199.230957,4187.051270,4215.512695,4207.307617,4187.948730,4224.871582,4219.230957,3232.000000,4.000000,,,,0.000000,4.000000,4.000000,4.000000,4.000000,4.000000,4.000000,4.000000,4.000000,4.000000,4.000000,4.000000,4.000000,4.000000,4.000000,100.000000,,,,,,,,,,,,,,,,,,,,,,,,,,,,,,,,,,,,,,,,,,,,,,,,,,,,,,,,,,,,,,,,,,,,,,,,,,,,,,,,,,
1607716083.319790,2.000000,0.000000,4243.205078,4226.153809,4215.384766,4238.205078,4200.769043,4190.897461,4195.512695,4188.205078,4184.871582,4211.922852,4214.871582,4187.436035,4215.897461,4217.948730,3589.000000,4.000000,,,,0.000000,4.000000,4.000000,4.000000,4.000000,4.000000,4.000000,4.000000,4.000000,4.000000,4.000000,4.000000,4.000000,4.000000,4.000000,100.000000,,,,,,,,,,,,,,,,,,,,,,,,,,,,,,,,,,,,,,,,,,,,,,,,,,,,,,,,,,,,,,,,,,,,,,,,,,,,,,,,,,
1607716083.327587,3.000000,0.000000,4244.871582,4222.563965,4216.282227,4230.000000,4201.410156,4195.641113,4196.538574,4184.230957,4183.846191,4201.794922,4211.538574,4191.794922,4216.153809,4221.153809,3590.000000,4.000000,,,,0.000000,4.000000,4.000000,4.000000,4.000000,4.000000,4.000000,4.000000,4.000000,4.000000,4.000000,4.000000,4.000000,4.000000,4.000000,100.000000,,,,,,,,,,,,,,,,,,,,,,,,,,,,,,,,,,,,,,,,,,,,,,,,,,,,,,,,,,,,,,,,,,,,,,,,,,,,,,,,,,
1607716083.335384,4.000000,0.000000,4248.974121,4232.948730,4218.077148,4229.358887,4205.897461,4204.743652,4205.128418,4202.436035,4192.051270,4214.487305,4216.794922,4200.384766,4230.512695,4232.563965,3425.000000,4.000000,,,,0.000000,4.000000,4.000000,4.000000,4.000000,4.000000,4.000000,4.000000,4.000000,4.000000,4.000000,4.000000,4.000000,4.000000,4.000000,100.000000,1.000000,0.000000,0.642154,-0.083923,-0.752808,0.117798,0.967300,-0.306157,-0.145022,-32.300297,-165.838104,-10.467689,,,,,,,,,,,,,,,,,,,,,,,,,,,,,,,,,,,,,,,,,,,,,,,,,,,,,,,,,,,,,,,,,,,,,,
1607716083.343083,5.000000,0.000000,4241.538574,4231.794922,4212.820313,4232.436035,4202.436035,4198.717773,4203.589844,4208.333496,4193.461426,4217.307617,4215.641113,4196.282227,4225.512695,4231.538574,3498.000000,4.000000,,,,0.000000,4.000000,4.000000,4.000000,4.000000,4.000000,4.000000,4.000000,4.000000,4.000000,4.000000,4.000000,4.000000,4.000000,4.000000,100.000000,,,,,,,,,,,,,,,,,,,,,,,,,,,,,,,,,,,,,,,,,,,,,,,,,,,,,,,,,,,,,,,,,,,,,,,,,,,,,,,,,,
1607716083.350882,6.000000,0.000000,4219.743652,4209.743652,4197.051270,4215.897461,4190.897461,4179.358887,4186.922852,4187.563965,4182.820313,4196.666504,4189.230957,4178.205078,4201.922852,4209.871582,3442.000000,4.000000,,,,0.000000,4.000000,4.000000,4.000000,4.000000,4.000000,4.000000,4.000000,4.000000,4.000000,4.000000,4.000000,4.000000,4.000000,4.000000,100.000000,,,,,,,,,,,,,,,,,,,,,,,,,,,,,,,,,,,,,,,,,,,,,,,,,,,,,,,,,,,,,,,,,,,,,,,,,,,,,,,,,,
1607716083.358681,7.000000,0.000000,4210.512695,4200.384766,4188.205078,4197.820313,4190.897461,4172.307617,4185.000000,4184.615234,4181.666504,4199.743652,4177.692383,4169.358887,4196.153809,4197.820313,3533.000000,4.000000,,,,0.000000,4.000000,4.000000,4.000000,4.000000,4.000000,4.000000,4.000000,4.000000,4.000000,4.000000,4.000000,4.000000,4.000000,4.000000,100.000000,,,,,,,,,,,,,,,,,,,,,,,,,,,,,,,,,,,,,,,,,,,,,,,,,,,,,,,,,,,,,,,,,,,,,,,,,,,,,,,,,,
1607716083.366479,8.000000,0.000000,4217.179688,4206.410156,4190.769043,4204.615234,4201.666504,4185.000000,4199.743652,4203.717773,4194.102539,4221.410156,4194.102539,4178.205078,4204.102539,4201.410156,2927.000000,4.000000,,,,0.000000,4.000000,4.000000,4.000000,4.000000,4.000000,4.000000,4.000000,4.000000,4.000000,4.000000,4.000000,4.000000,4.000000,4.000000,100.000000,2.000000,0.000000,0.642047,-0.083679,-0.752869,0.118164,0.979019,-0.295903,-0.136233,-30.804913,-165.688568,-9.121843,,,,,,,,,,,,,,,,,,,,,,,,,,,,,,,,,,,,,,,,,,,,,,,,,,,,,,,,,,,,,,,,,,,,,,
1607716083.374278,9.000000,0.000000,4216.538574,4203.717773,4191.794922,4219.102539,4203.333496,4190.512695,4203.717773,4206.666504,4201.666504,4221.538574,4198.077148,4182.307617,4205.384766,4200.897461,3350.000000,4.000000,,,,0.000000,4.000000,4.000000,4.000000,4.000000,4.000000,4.000000,4.000000,4.000000,4.000000,4.000000,4.000000,4.000000,4.000000,4.000000,100.000000,,,,,,,,,,,,,,,,,,,,,,,,,,,,,,,,,,,,,,,,,,,,,,,,,,,,,,,,,,,,,,,,,,,,,,,,,,,,,,,,,,
1607716083.382077,10.000000,0.000000,4211.153809,4201.153809,4190.512695,4213.205078,4198.589844,4183.333496,4198.333496,4202.692383,4199.615234,4211.410156,4185.384766,4174.743652,4200.384766,4195.769043,3512.000000,4.000000,,,,0.000000,4.000000,4.000000,4.000000,4.000000,4.000000,4.000000,4.000000,4.000000,4.000000,4.000000,4.000000,4.000000,4.000000,4.000000,100.000000,,,,,,,,,,,,,,,,,,,,,,,,,,,,,,,,,,,,,,,,,,,,,,,,,,,,,,,,,,,,,,,,,,,,,,,,,,,,,,,,,,
1607716083.389875,11.000000,0.000000,4211.666504,4207.179688,4193.461426,4204.358887,4199.871582,4185.256348,4198.205078,4213.846191,4197.820313,4214.615234,4183.846191,4172.692383,4201.666504,4195.641113,3396.000000,4.000000,,,,0.000000,4.000000,4.000000,4.000000,4.000000,4.000000,4.000000,4.000000,4.000000,4.000000,4.000000,4.000000,4.000000,4.000000,4.000000,100.000000,,,,,,,,,,,,,,,,,,,,,,,,,,,,,,,,,,,,,,,,,,,,,,,,,,,,,,,,,,,,,,,,,,,,,,,,,,,,,,,,,,
1607716083.397674,12.000000,0.000000,4215.384766,4210.384766,4200.000000,4213.589844,4203.589844,4188.974121,4200.128418,4220.769043,4201.538574,4220.769043,4197.563965,4183.589844,4214.487305,4201.025879,3507.000000,4.000000,,,,0.000000,4.000000,4.000000,4.000000,4.000000,4.000000,4.000000,4.000000,4.000000,4.000000,4.000000,4.000000,4.000000,4.000000,4.000000,100.000000,3.000000,0.000000,0.641874,-0.083679,-0.752930,0.118713,0.971206,-0.290532,-0.133791,-30.804913,-166.137177,-9.869535,,,,,,,,,,,,,,,,,,,,,,,,,,,,,,,,,,,,,,,,,,,,,,,,,,,,,,,,,,,,,,,,,,,,,,
1607716083.405473,13.000000,0.000000,4217.179688,4211.922852,4204.871582,4222.563965,4203.461426,4186.153809,4200.641113,4210.641113,4200.128418,4218.205078,4206.794922,4188.205078,4220.384766,4204.102539,3006.000000,4.000000,,,,0.000000,4.000000,4.000000,4.000000,4.000000,4.000000,4.000000,4.000000,4.000000,4.000000,4.000000,4.000000,4.000000,4.000000,4.000000,100.000000,,,,,,,,,,,,,,,,,,,,,,,,,,,,,,,,,,,,,,,,,,,,,,,,,,,,,,,,,,,,,,,,,,,,,,,,,,,,,,,,,,
1607716083.413169,14.000000,0.000000,4214.487305,4214.358887,4200.512695,4212.436035,4202.820313,4186.025879,4196.538574,4196.922852,4183.846191,4213.077148,4195.512695,4176.538574,4203.205078,4194.871582,3512.000000,4.000000,,,,0.000000,4.000000,4.000000,4.000000,4.000000,4.000000,4.000000,4.000000,4.000000,4.000000,4.000000,4.000000,4.000000,4.000000,4.000000,100.000000,,,,,,,,,,,,,,,,,,,,,,,,,,,,,,,,,,,,,,,,,,,,,,,,,,,,,,,,,,,,,,,,,,,,,,,,,,,,,,,,,,
1607716083.420966,15.000000,0.000000,4211.538574,4213.589844,4197.948730,4203.333496,4204.358887,4188.974121,4189.358887,4188.333496,4172.563965,4211.538574,4186.025879,4168.717773,4197.436035,4186.538574,3396.000000,4.000000,,,,0.000000,4.000000,4.000000,4.000000,4.000000,4.000000,4.000000,4.000000,4.000000,4.000000,4.000000,4.000000,4.000000,4.000000,4.000000,100.000000,,,,,,,,,,,,,21.957396,7.368239,2.018583,0.742302,0.323520,78.753479,15.204164,4.406228,1.264570,0.342137,7.269485,2.761177,1.111569,0.612023,0.322294,13.855844,4.841201,1.123363,0.688720,0.373023,2.893816,1.601936,0.450038,0.753656,0.337785,0.936651,0.686731,0.226905,0.810831,0.423368,1.537402,1.140748,0.229672,0.813501,0.472345,3.668853,0.849483,0.431245,1.195848,0.357480,1.531449,0.523409,0.518279,0.672057,0.401445,4.421951,2.290651,0.636437,1.103787,0.655152,2.917478,2.915546,0.420349,0.713759,0.336358,3.108510,1.738788,0.502015,0.464444,0.275129,6.873971,8.996903,0.922239,0.912978,0.577386,6.832532,3.224913,1.235215,0.735858,0.303709
1607716083.428763,16.000000,0.000000,4207.179688,4206.153809,4198.461426,4203.461426,4199.102539,4183.846191,4185.000000,4186.153809,4170.128418,4200.128418,4189.487305,4172.436035,4204.230957,4185.128418,0.000000,4.000000,,,,0.000000,4.000000,4.000000,4.000000,4.000000,4.000000,4.000000,4.000000,4.000000,4.000000,4.000000,4.000000,4.000000,4.000000,4.000000,100.000000,4.000000,0.000000,0.641705,-0.083557,-0.752991,0.119324,0.982437,-0.291020,-0.129397,-32.449837,-164.641800,-11.364920,,,,,,,,,,,,,,,,,,,,,,,,,,,,,,,,,,,,,,,,,,,,,,,,,,,,,,,,,,,,,,,,,,,,,,
1607716083.436560,17.000000,0.000000,4196.025879,4190.897461,4185.000000,4194.743652,4184.358887,4178.717773,4183.717773,4182.948730,4167.051270,4179.487305,4180.384766,4166.666504,4186.922852,4172.948730,0.000000,4.000000,,,,0.000000,4.000000,4.000000,4.000000,4.000000,4.000000,4.000000,4.000000,4.000000,4.000000,4.000000,4.000000,4.000000,4.000000,4.000000,100.000000,,,,,,,,,,,,,,,,,,,,,,,,,,,,,,,,,,,,,,,,,,,,,,,,,,,,,,,,,,,,,,,,,,,,,,,,,,,,,,,,,,
1607716083.444356,18.000000,0.000000,4192.436035,4182.179688,4178.205078,4184.102539,4180.641113,4183.077148,4185.000000,4180.641113,4170.512695,4180.641113,4171.538574,4158.077148,4175.897461,4165.769043,0.000000,4.000000,,,,0.000000,4.000000,4.000000,4.000000,4.000000,4.000000,4.000000,4.000000,4.000000,4.000000,4.000000,4.000000,4.000000,4.000000,4.000000,100.000000,,,,,,,,,,,,,,,,,,,,,,,,,,,,,,,,,,,,,,,,,,,,,,,,,,,,,,,,,,,,,,,,,,,,,,,,,,,,,,,,,,
1607716083.452056,19.000000,0.000000,4208.077148,4191.282227,4194.615234,4187.692383,4194.743652,4186.922852,4187.051270,4191.410156,4183.589844,4199.487305,4190.769043,4173.717773,4201.153809,4185.000000,0.000000,4.000000,,,,0.000000,4.000000,4.000000,4.000000,4.000000,4.000000,4.000000,4.000000,4.000000,4.000000,4.000000,4.000000,4.000000,4.000000,4.000000,100.000000,,,,,,,,,,,,,,,,,,,,,,,,,,,,,,,,,,,,,,,,,,,,,,,,,,,,,,,,,,,,,,,,,,,,,,,,,,,,,,,,,,
1607716083.459855,20.000000,0.000000,4219.871582,4203.461426,4204.871582,4203.974121,4202.692383,4193.717773,4192.948730,4202.436035,4193.589844,4210.384766,4209.230957,4190.641113,4222.179688,4202.948730,0.000000,4.000000,,,,0.000000,4.000000,4.000000,4.000000,4.000000,4.000000,4.000000,4.000000,4.000000,4.000000,4.000000,4.000000,4.000000,4.000000,4.000000,100.000000,5.000000,0.000000,0.641682,-0.083557,-0.752991,0.119446,0.975113,-0.306157,-0.148440,-32.300297,-164.791336,-8.972305,,,,,,,,,,,,,,,,,,,,,,,,,,,,,,,,,,,,,,,,,,,,,,,,,,,,,,,,,,,,,,,,,,,,,,
1607716083.467655,21.000000,0.000000,4218.717773,4205.769043,4200.128418,4213.461426,4196.922852,4199.230957,4198.205078,4202.436035,4197.179688,4216.538574,4204.358887,4187.436035,4220.256348,4202.051270,0.000000,4.000000,,,,0.000000,4.000000,4.000000,4.000000,4.000000,4.000000,4.000000,4.000000,4.000000,4.000000,4.000000,4.000000,4.000000,4.000000,4.000000,100.000000,,,,,,,,,,,,,,,,,,,,,,,,,,,,,,,,,,,,,,,,,,,,,,,,,,,,,,,,,,,,,,,,,,,,,,,,,,,,,,,,,,
1607716083.475454,22.000000,0.000000,4216.538574,4205.512695,4202.436035,4207.563965,4198.717773,4190.769043,4194.615234,4206.410156,4196.282227,4221.666504,4196.666504,4184.487305,4218.077148,4198.974121,0.000000,4.000000,,,,0.000000,4.000000,4.000000,4.000000,4.000000,4.000000,4.000000,4.000000,4.000000,4.000000,4.000000,4.000000,4.000000,4.000000,4.000000,100.000000,,,,,,,,,,,,,,,,,,,,,,,,,,,,,,,,,,,,,,,,,,,,,,,,,,,,,,,,,,,,,,,,,,,,,,,,,,,,,,,,,,
1607716083.483254,23.000000,0.000000,4210.128418,4202.051270,4198.974121,4197.563965,4199.358887,4180.256348,4184.615234,4208.333496,4190.256348,4212.051270,4188.589844,4181.025879,4216.666504,4192.307617,0.000000,4.000000,,,,0.000000,4.000000,4.000000,4.000000,4.000000,4.000000,4.000000,4.000000,4.000000,4.000000,4.000000,4.000000,4.000000,4.000000,4.000000,100.000000,,,,,,,,,,,,,,,,,,,,,,,,,,,,,,,,,,,,,,,,,,,,,,,,,,,,,,,,,,,,,,,,,,,,,,,,,,,,,,,,,,
1607716083.491053,24.000000,0.000000,4207.179688,4201.025879,4191.025879,4198.333496,4192.179688,4183.589844,4180.384766,4199.102539,4185.000000,4197.436035,4181.922852,4176.282227,4213.589844,4189.102539,0.000000,4.000000,,,,0.000000,4.000000,4.000000,4.000000,4.000000,4.000000,4.000000,4.000000,4.000000,4.000000,4.000000,4.000000,4.000000,4.000000,4.000000,100.000000,6.000000,0.000000,0.641764,-0.083740,-0.752930,0.119263,0.981949,-0.303716,-0.147463,-31.253529,-165.688568,-9.121843,,,,,,,,,,,,,,,,,,,,,,,,,,,,,,,,,,,,,,,,,,,,,,,,,,,,,,,,,,,,,,,,,,,,,,
1607716083.498852,25.000000,0.000000,4214.871582,4207.692383,4197.051270,4204.487305,4194.358887,4189.615234,4184.743652,4199.230957,4187.436035,4196.666504,4194.358887,4183.333496,4217.948730,4200.000000,0.000000,4.000000,,,,0.000000,4.000000,4.000000,4.000000,4.000000,4.000000,4.000000,4.000000,4.000000,4.000000,4.000000,4.000000,4.000000,4.000000,4.000000,100.000000,,,,,,,,,,,,,,,,,,,,,,,,,,,,,,,,,,,,,,,,,,,,,,,,,,,,,,,,,,,,,,,,,,,,,,,,,,,,,,,,,,
1607716083.506652,26.000000,0.000000,4215.128418,4207.692383,4197.820313,4197.563965,4196.538574,4185.384766,4185.256348,4208.077148,4195.897461,4204.230957,4203.077148,4187.820313,4220.512695,4202.179688,0.000000,4.000000,,,,0.000000,4.000000,4.000000,4.000000,4.000000,4.000000,4.000000,4.000000,4.000000,4.000000,4.000000,4.000000,4.000000,4.000000,4.000000,100.000000,,,,,,,,,,,,,,,,,,,,,,,,,,,,,,,,,,,,,,,,,,,,,,,,,,,,,,,,,,,,,,,,,,,,,,,,,,,,,,,,,,
1607716083.514451,27.000000,0.000000,4208.461426,4200.256348,4188.846191,4185.384766,4189.615234,4181.153809,4183.461426,4206.282227,4197.051270,4207.820313,4191.538574,4180.384766,4215.000000,4192.692383,0.000000,4.000000,,,,0.000000,4.000000,4.000000,4.000000,4.000000,4.000000,4.000000,4.000000,4.000000,4.000000,4.000000,4.000000,4.000000,4.000000,4.000000,100.000000,,,,,,,,,,,,,,,,,,,,,,,,,,,,,,,,,,,,,,,,,,,,,,,,,,,,,,,,,,,,,,,,,,,,,,,,,,,,,,,,,,
1607716083.522250,28.000000,0.000000,4209.230957,4201.794922,4196.025879,4187.307617,4196.153809,4190.641113,4186.794922,4201.153809,4187.179688,4203.717773,4182.820313,4181.538574,4216.922852,4196.666504,0.000000,4.000000,,,,0.000000,4.000000,4.000000,4.000000,4.000000,4.000000,4.000000,4.000000,4.000000,4.000000,4.000000,4.000000,4.000000,4.000000,4.000000,100.000000,7.000000,0.000000,0.641685,-0.083618,-0.752991,0.119385,0.971206,-0.294926,-0.138674,-32.599373,-164.791336,-9.271381,,,,,,,,,,,,,,,,,,,,,,,,,,,,,,,,,,,,,,,,,,,,,,,,,,,,,,,,,,,,,,,,,,,,,,
1607716083.529947,29.000000,0.000000,4209.102539,4200.769043,4207.051270,4196.153809,4205.256348,4202.563965,4191.153809,4202.179688,4182.307617,4199.871582,4187.563965,4190.128418,4217.563965,4203.077148,0.000000,4.000000,,,,0.000000,4.000000,4.000000,4.000000,4.000000,4.000000,4.000000,4.000000,4.000000,4.000000,4.000000,4.000000,4.000000,4.000000,4.000000,100.000000,,,,,,,,,,,,,,,,,,,,,,,,,,,,,,,,,,,,,,,,,,,,,,,,,,,,,,,,,,,,,,,,,,,,,,,,,,,,,,,,,,
1607716083.537744,30.000000,0.000000,4198.974121,4184.487305,4194.230957,4189.487305,4189.743652,4184.615234,4183.461426,4198.077148,4181.282227,4194.871582,4187.051270,4183.205078,4204.871582,4188.974121,0.000000,4.000000,,,,0.000000,4.000000,4.000000,4.000000,4.000000,4.000000,4.000000,4.000000,4.000000,4.000000,4.000000,4.000000,4.000000,4.000000,4.000000,100.000000,,,,,,,,,,,,,,,,,,,,,,,,,,,,,,,,,,,,,,,,,,,,,,,,,,,,,,,,,,,,,,,,,,,,,,,,,,,,,,,,,,
1607716083.545541,31.000000,0.000000,4195.641113,4182.051270,4184.871582,4184.615234,4181.410156,4165.769043,4178.589844,4195.769043,4178.333496,4194.487305,4182.436035,4174.102539,4203.846191,4181.025879,0.000000,4.000000,,,,0.000000,4.000000,4.000000,4.000000,4.000000,4.000000,4.000000,4.000000,4.000000,4.000000,4.000000,4.000000,4.000000,4.000000,4.000000,100.000000,,,,,,,,,,,,,26.293531,9.633904,2.461256,0.705453,0.309193,90.768852,19.853439,5.552230,1.320462,0.366381,7.866298,3.244370,1.204406,0.563519,0.336589,15.527343,5.903348,1.226507,0.685678,0.374489,3.299922,1.786345,0.437392,0.721634,0.332578,1.004543,0.799590,0.289862,0.754239,0.425979,1.802666,1.167950,0.208662,0.770142,0.473160,4.262754,0.793890,0.351281,1.142165,0.376584,1.635215,0.503013,0.398425,0.607881,0.383045,4.907690,2.478374,0.528952,1.059274,0.607712,3.050876,3.025116,0.438411,0.705509,0.361257,2.977263,1.858630,0.546602,0.435882,0.280742,7.863297,8.938848,0.989010,0.900314,0.585867,8.309698,4.042290,1.405027,0.704305,0.309121
1607716083.553338,32.000000,0.000000,4207.820313,4201.922852,4198.461426,4200.769043,4199.230957,4194.743652,4196.282227,4207.563965,4189.358887,4206.794922,4188.589844,4183.974121,4220.128418,4196.794922,0.000000,4.000000,,,,0.000000,4.000000,4.000000,4.000000,4.000000,4.000000,4.000000,4.000000,4.000000,4.000000,4.000000,4.000000,4.000000,4.000000,4.000000,100.000000,8.000000,0.000000,0.641918,-0.083801,-0.752869,0.118774,0.976577,-0.298344,-0.148928,-32.599373,-165.539032,-10.467689,,,,,,,,,,,,,,,,,,,,,,,,,,,,,,,,,,,,,,,,,,,,,,,,,,,,,,,,,,,,,,,,,,,,,,
1607716083.561134,33.000000,0.000000,4214.743652,4202.820313,4203.333496,4204.102539,4207.436035,4221.922852,4207.307617,4214.615234,4201.538574,4212.436035,4190.897461,4190.384766,4217.179688,4203.205078,0.000000,4.000000,,,,0.000000,4.000000,4.000000,4.000000,4.000000,4.000000,4.000000,4.000000,4.000000,4.000000,4.000000,4.000000,4.000000,4.000000,4.000000,100.000000,,,,,,,,,,,,,,,,,,,,,,,,,,,,,,,,,,,,,,,,,,,,,,,,,,,,,,,,,,,,,,,,,,,,,,,,,,,,,,,,,,
1607716083.568829,34.000000,0.000000,4204.358887,4183.461426,4192.179688,4178.717773,4192.436035,4200.512695,4196.153809,4204.102539,4190.897461,4202.820313,4183.717773,4177.179688,4199.102539,4190.641113,0.000000,4.000000,,,,0.000000,4.000000,4.000000,4.000000,4.000000,4.000000,4.000000,4.000000,4.000000,4.000000,4.000000,4.000000,4.000000,4.000000,4.000000,100.000000,,,,,,,,,,,,,,,,,,,,,,,,,,,,,,,,,,,,,,,,,,,,,,,,,,,,,,,,,,,,,,,,,,,,,,,,,,,,,,,,,,
1607716083.576624,35.000000,0.000000,4195.897461,4179.358887,4186.794922,4162.436035,4182.692383,4183.333496,4190.897461,4195.128418,4182.051270,4198.333496,4179.358887,4167.563965,4201.922852,4184.102539,0.000000,4.000000,,,,0.000000,4.000000,4.000000,4.000000,4.000000,4.000000,4.000000,4.000000,4.000000,4.000000,4.000000,4.000000,4.000000,4.000000,4.000000,100.000000,,,,,,,,,,,,,,,,,,,,,,,,,,,,,,,,,,,,,,,,,,,,,,,,,,,,,,,,,,,,,,,,,,,,,,,,,,,,,,,,,,
1607716083.584320,36.000000,0.000000,4200.769043,4186.794922,4193.717773,4179.743652,4192.307617,4198.333496,4199.743652,4201.666504,4187.948730,4199.743652,4180.512695,4172.307617,4216.922852,4189.230957,0.000000,4.000000,,,,0.000000,4.000000,4.000000,4.000000,4.000000,4.000000,4.000000,4.000000,4.000000,4.000000,4.000000,4.000000,4.000000,4.000000,4.000000,100.000000,9.000000,0.000000,0.642097,-0.084473,-0.752747,0.118103,0.967788,-0.317876,-0.140139,-31.851683,-167.034409,-10.019073,,,,,,,,,,,,,,,,,,,,,,,,,,,,,,,,,,,,,,,,,,,,,,,,,,,,,,,,,,,,,,,,,,,,,,
1607716083.592116,37.000000,0.000000,4203.461426,4187.948730,4198.974121,4200.897461,4202.179688,4210.769043,4205.384766,4205.641113,4190.000000,4199.487305,4187.307617,4177.820313,4217.692383,4194.615234,0.000000,4.000000,,,,0.000000,4.000000,4.000000,4.000000,4.000000,4.000000,4.000000,4.000000,4.000000,4.000000,4.000000,4.000000,4.000000,4.000000,4.000000,100.000000,,,,,,,,,,,,,,,,,,,,,,,,,,,,,,,,,,,,,,,,,,,,,,,,,,,,,,,,,,,,,,,,,,,,,,,,,,,,,,,,,,
1607716083.599913,38.000000,0.000000,4203.589844,4188.461426,4199.615234,4197.692383,4199.358887,4205.769043,4202.179688,4201.538574,4187.948730,4205.641113,4198.461426,4180.000000,4217.436035,4198.589844,0.000000,4.000000,,,,0.000000,4.000000,4.000000,4.000000,4.000000,4.000000,4.000000,4.000000,4.000000,4.000000,4.000000,4.000000,4.000000,4.000000,4.000000,100.000000,,,,,,,,,,,,,,,,,,,,,,,,,,,,,,,,,,,,,,,,,,,,,,,,,,,,,,,,,,,,,,,,,,,,,,,,,,,,,,,,,,
1607716083.607709,39.000000,0.000000,4204.743652,4191.282227,4197.307617,4183.974121,4193.846191,4198.974121,4198.589844,4205.769043,4195.769043,4207.948730,4201.410156,4180.128418,4220.512695,4199.743652,0.000000,4.000000,,,,0.000000,4.000000,4.000000,4.000000,4.000000,4.000000,4.000000,4.000000,4.000000,4.000000,4.000000,4.000000,4.000000,4.000000,4.000000,100.000000,,,,,,,,,,,,,,,,,,,,,,,,,,,,,,,,,,,,,,,,,,,,,,,,,,,,,,,,,,,,,,,,,,,,,,,,,,,,,,,,,,
1607716083.615505,40.000000,0.000000,4201.666504,4191.153809,4198.846191,4185.000000,4199.230957,4205.769043,4205.512695,4218.846191,4210.897461,4197.436035,4190.897461,4181.153809,4200.641113,4198.205078,0.000000,4.000000,,,,0.000000,4.000000,4.000000,4.000000,4.000000,4.000000,4.000000,4.000000,4.000000,4.000000,4.000000,4.000000,4.000000,4.000000,4.000000,100.000000,10.000000,0.000000,0.641735,-0.083557,-0.753052,0.118774,0.980484,-0.335943,-0.142092,-31.403067,-166.286713,-9.719997,,,,,,,,,,,,,,,,,,,,,,,,,,,,,,,,,,,,,,,,,,,,,,,,,,,,,,,,,,,,,,,,,,,,,,
1607716083.623204,41.000000,0.000000,4208.077148,4188.717773,4203.589844,4194.615234,4203.846191,4216.410156,4222.179688,4226.922852,4213.974121,4196.922852,4194.230957,4184.487305,4185.256348,4199.487305,0.000000,4.000000,,,,0.000000,4.000000,4.000000,4.000000,4.000000,4.000000,4.000000,4.000000,4.000000,4.000000,4.000000,4.000000,4.000000,4.000000,4.000000,100.000000,,,,,,,,,,,,,,,,,,,,,,,,,,,,,,,,,,,,,,,,,,,,,,,,,,,,,,,,,,,,,,,,,,,,,,,,,,,,,,,,,,
1607716083.631003,42.000000,0.000000,4214.102539,4177.820313,4199.487305,4187.307617,4193.077148,4210.512695,4219.871582,4215.769043,4202.563965,4210.000000,4210.641113,4181.025879,4212.948730,4201.025879,0.000000,4.000000,,,,0.000000,4.000000,4.000000,4.000000,4.000000,4.000000,4.000000,4.000000,4.000000,4.000000,4.000000,4.000000,4.000000,4.000000,4.000000,100.000000,,,,,,,,,,,,,,,,,,,,,,,,,,,,,,,,,,,,,,,,,,,,,,,,,,,,,,,,,,,,,,,,,,,,,,,,,,,,,,,,,,
1607716083.638802,43.000000,0.000000,4206.922852,4155.769043,4195.000000,4166.794922,4185.384766,4197.563965,4202.436035,4204.871582,4200.641113,4222.179688,4223.333496,4182.179688,4249.871582,4205.384766,0.000000,4.000000,,,,0.000000,4.000000,4.000000,4.000000,4.000000,4.000000,4.000000,4.000000,4.000000,4.000000,4.000000,4.000000,4.000000,4.000000,4.000000,100.000000,,,,,,,,,,,,,,,,,,,,,,,,,,,,,,,,,,,,,,,,,,,,,,,,,,,,,,,,,,,,,,,,,,,,,,,,,,,,,,,,,,
1607716083.646601,44.000000,0.000000,4205.384766,4135.256348,4201.282227,4160.000000,4194.102539,4202.563965,4206.538574,4213.461426,4215.384766,4227.820313,4239.871582,4197.307617,4269.358887,4212.692383,0.000000,4.000000,,,,0.000000,4.000000,4.000000,4.000000,4.000000,4.000000,4.000000,4.000000,4.000000,4.000000,4.000000,4.000000,4.000000,4.000000,4.000000,100.000000,11.000000,0.000000,0.640621,-0.080078,-0.754028,0.120972,0.956069,-0.329107,-0.146975,-31.851683,-165.838104,-10.019073,,,,,,,,,,,,,,,,,,,,,,,,,,,,,,,,,,,,,,,,,,,,,,,,,,,,,,,,,,,,,,,,,,,,,,
1607716083.654400,45.000000,0.000000,4213.717773,4118.333496,4204.743652,4168.974121,4198.589844,4215.769043,4220.256348,4224.615234,4227.948730,4240.384766,4261.794922,4206.025879,4300.256348,4219.358887,0.000000,4.000000,,,,0.000000,4.000000,4.000000,4.000000,4.000000,4.000000,4.000000,4.000000,4.000000,4.000000,4.000000,4.000000,4.000000,4.000000,4.000000,100.000000,,,,,,,,,,,,,,,,,,,,,,,,,,,,,,,,,,,,,,,,,,,,,,,,,,,,,,,,,,,,,,,,,,,,,,,,,,,,,,,,,,
1607716083.662199,46.000000,0.000000,4213.974121,4095.256348,4199.871582,4167.179688,4189.743652,4215.641113,4212.051270,4220.256348,4227.692383,4260.769043,4272.948730,4203.333496,4333.846191,4223.589844,0.000000,4.000000,,,,0.000000,4.000000,4.000000,4.000000,4.000000,4.000000,4.000000,4.000000,4.000000,4.000000,4.000000,4.000000,4.000000,4.000000,4.000000,100.000000,,,,,,,,,,,,,,,,,,,,,,,,,,,,,,,,,,,,,,,,,,,,,,,,,,,,,,,,,,,,,,,,,,,,,,,,,,,,,,,,,,
1607716083.669998,47.000000,0.000000,4209.487305,4072.307617,4197.307617,4152.948730,4181.666504,4209.615234,4198.333496,4213.846191,4221.282227,4266.025879,4279.743652,4207.563965,4355.897461,4227.436035,0.000000,4.000000,,,,0.000000,4.000000,4.000000,4.000000,4.000000,4.000000,4.000000,4.000000,4.000000,4.000000,4.000000,4.000000,4.000000,4.000000,4.000000,100.000000,,,,,,,,,,,,,28.086761,10.751301,2.825386,0.686981,0.302544,92.710831,22.341047,6.317954,1.283428,0.400112,8.243462,3.444508,1.326402,0.555072,0.354686,15.987109,6.301030,1.323038,0.660043,0.382464,3.412195,1.801140,0.437611,0.661535,0.325815,1.081032,0.872815,0.393918,0.690794,0.446567,2.161952,1.135069,0.242166,0.710833,0.467164,4.829360,0.753402,0.358551,1.069142,0.399767,1.727073,0.461630,0.305670,0.539551,0.366346,4.988275,2.422720,0.446197,0.986251,0.577382,2.940585,2.817557,0.561909,0.733794,0.398704,2.835153,1.848619,0.652604,0.436124,0.284291,8.065873,7.800407,1.119352,0.887339,0.592731,9.185510,4.390496,1.575857,0.679930,0.327507
1607716083.677797,48.000000,0.000000,4215.769043,4057.564209,4202.307617,4144.230957,4175.641113,4215.256348,4205.512695,4223.333496,4222.563965,4271.282227,4305.128418,4218.205078,4394.743652,4239.230957,0.000000,4.000000,,,,0.000000,4.000000,4.000000,4.000000,4.000000,4.000000,4.000000,4.000000,4.000000,4.000000,4.000000,4.000000,4.000000,4.000000,4.000000,100.000000,12.000000,0.000000,0.639525,-0.075989,-0.755005,0.123291,0.973648,-0.299321,-0.165042,-31.702145,-164.940872,-10.318151,,,,,,,,,,,,,,,,,,,,,,,,,,,,,,,,,,,,,,,,,,,,,,,,,,,,,,,,,,,,,,,,,,,,,,
1607716083.685596,49.000000,0.000000,4222.692383,4041.281982,4205.128418,4141.282227,4168.333496,4219.358887,4218.077148,4235.384766,4233.333496,4296.153809,4327.051270,4222.051270,4426.922852,4247.563965,0.000000,4.000000,,,,0.000000,4.000000,4.000000,4.000000,4.000000,4.000000,4.000000,4.000000,4.000000,4.000000,4.000000,4.000000,4.000000,4.000000,4.000000,100.000000,,,,,,,,,,,,,,,,,,,,,,,,,,,,,,,,,,,,,,,,,,,,,,,,,,,,,,,,,,,,,,,,,,,,,,,,,,,,,,,,,,
1607716083.693295,50.000000,0.000000,4216.794922,4025.641113,4195.769043,4136.410156,4166.666504,4204.230957,4215.512695,4234.743652,4232.563965,4301.153809,4317.307617,4216.410156,4423.589844,4238.589844,0.000000,4.000000,,,,0.000000,4.000000,4.000000,4.000000,4.000000,4.000000,4.000000,4.000000,4.000000,4.000000,4.000000,4.000000,4.000000,4.000000,4.000000,100.000000,,,,,,,,,,,,,,,,,,,,,,,,,,,,,,,,,,,,,,,,,,,,,,,,,,,,,,,,,,,,,,,,,,,,,,,,,,,,,,,,,,
1607716083.701094,51.000000,0.000000,4204.743652,4023.718018,4186.922852,4132.692383,4164.102539,4196.282227,4212.563965,4229.743652,4225.769043,4277.820313,4296.410156,4207.307617,4411.538574,4226.410156,0.000000,4.000000,,,,0.000000,4.000000,4.000000,4.000000,4.000000,4.000000,4.000000,4.000000,4.000000,4.000000,4.000000,4.000000,4.000000,4.000000,4.000000,100.000000,,,,,,,,,,,,,,,,,,,,,,,,,,,,,,,,,,,,,,,,,,,,,,,,,,,,,,,,,,,,,,,,,,,,,,,,,,,,,,,,,,
1607716083.708893,52.000000,0.000000,4201.025879,4030.769287,4188.077148,4136.794922,4160.512695,4208.974121,4217.948730,4237.948730,4229.615234,4272.948730,4292.436035,4204.358887,4408.333496,4229.358887,0.000000,4.000000,,,,0.000000,4.000000,4.000000,4.000000,4.000000,4.000000,4.000000,4.000000,4.000000,4.000000,4.000000,4.000000,4.000000,4.000000,4.000000,100.000000,13.000000,0.000000,0.639317,-0.074707,-0.755249,0.123657,0.969741,-0.281743,-0.160647,-30.804913,-165.389481,-11.364920,,,,,,,,,,,,,,,,,,,,,,,,,,,,,,,,,,,,,,,,,,,,,,,,,,,,,,,,,,,,,,,,,,,,,,
1607716083.716692,53.000000,0.000000,4202.692383,4031.538574,4186.153809,4137.436035,4163.589844,4210.641113,4217.820313,4245.000000,4233.974121,4285.384766,4296.666504,4203.974121,4399.743652,4228.717773,0.000000,4.000000,,,,0.000000,4.000000,4.000000,4.000000,4.000000,4.000000,4.000000,4.000000,4.000000,4.000000,4.000000,4.000000,4.000000,4.000000,4.000000,100.000000,,,,,,,,,,,,,,,,,,,,,,,,,,,,,,,,,,,,,,,,,,,,,,,,,,,,,,,,,,,,,,,,,,,,,,,,,,,,,,,,,,
1607716083.724491,54.000000,0.000000,4198.974121,4032.692383,4182.948730,4136.153809,4170.128418,4211.794922,4221.410156,4248.974121,4241.794922,4285.897461,4299.358887,4201.794922,4390.512695,4221.025879,0.000000,4.000000,,,,0.000000,4.000000,4.000000,4.000000,4.000000,4.000000,4.000000,4.000000,4.000000,4.000000,4.000000,4.000000,4.000000,4.000000,4.000000,100.000000,,,,,,,,,,,,,,,,,,,,,,,,,,,,,,,,,,,,,,,,,,,,,,,,,,,,,,,,,,,,,,,,,,,,,,,,,,,,,,,,,,
1607716083.732291,55.000000,0.000000,4197.820313,4040.128174,4185.384766,4147.820313,4171.025879,4218.717773,4233.461426,4258.205078,4247.948730,4276.282227,4298.077148,4202.307617,4383.333496,4221.282227,0.000000,4.000000,,,,0.000000,4.000000,4.000000,4.000000,4.000000,4.000000,4.000000,4.000000,4.000000,4.000000,4.000000,4.000000,4.000000,4.000000,4.000000,100.000000,,,,,,,,,,,,,,,,,,,,,,,,,,,,,,,,,,,,,,,,,,,,,,,,,,,,,,,,,,,,,,,,,,,,,,,,,,,,,,,,,,
1607716083.740090,56.000000,0.000000,4199.102539,4041.923096,4185.384766,4155.000000,4164.615234,4208.846191,4228.846191,4248.717773,4236.282227,4264.743652,4285.128418,4199.871582,4366.410156,4218.461426,0.000000,4.000000,,,,0.000000,4.000000,4.000000,4.000000,4.000000,4.000000,4.000000,4.000000,4.000000,4.000000,4.000000,4.000000,4.000000,4.000000,4.000000,100.000000,14.000000,0.000000,0.639483,-0.075012,-0.755188,0.122986,0.972671,-0.285161,-0.151858,-32.599373,-165.838104,-11.963073,,,,,,,,,,,,,,,,,,,,,,,,,,,,,,,,,,,,,,,,,,,,,,,,,,,,,,,,,,,,,,,,,,,,,,
1607716083.747889,57.000000,0.000000,4198.077148,4043.974365,4188.717773,4146.025879,4170.897461,4203.333496,4220.512695,4229.871582,4225.000000,4258.974121,4278.717773,4199.487305,4358.974121,4214.743652,0.000000,4.000000,,,,0.000000,4.000000,4.000000,4.000000,4.000000,4.000000,4.000000,4.000000,4.000000,4.000000,4.000000,4.000000,4.000000,4.000000,4.000000,100.000000,,,,,,,,,,,,,,,,,,,,,,,,,,,,,,,,,,,,,,,,,,,,,,,,,,,,,,,,,,,,,,,,,,,,,,,,,,,,,,,,,,
1607716083.755688,58.000000,0.000000,4203.461426,4056.153809,4201.794922,4155.256348,4185.769043,4217.051270,4228.461426,4230.000000,4229.871582,4266.922852,4288.717773,4211.666504,4365.128418,4224.102539,0.000000,4.000000,,,,0.000000,4.000000,4.000000,4.000000,4.000000,4.000000,4.000000,4.000000,4.000000,4.000000,4.000000,4.000000,4.000000,4.000000,4.000000,100.000000,,,,,,,,,,,,,,,,,,,,,,,,,,,,,,,,,,,,,,,,,,,,,,,,,,,,,,,,,,,,,,,,,,,,,,,,,,,,,,,,,,
1607716083.763487,59.000000,0.000000,4215.128418,4069.487061,4204.871582,4181.153809,4186.922852,4221.153809,4233.461426,4233.974121,4232.692383,4274.230957,4298.205078,4217.948730,4367.436035,4234.358887,0.000000,4.000000,,,,0.000000,4.000000,4.000000,4.000000,4.000000,4.000000,4.000000,4.000000,4.000000,4.000000,4.000000,4.000000,4.000000,4.000000,4.000000,100.000000,,,,,,,,,,,,,,,,,,,,,,,,,,,,,,,,,,,,,,,,,,,,,,,,,,,,,,,,,,,,,,,,,,,,,,,,,,,,,,,,,,
1607716083.771186,60.000000,0.000000,4217.436035,4074.102539,4202.051270,4181.025879,4182.307617,4214.743652,4231.538574,4235.512695,4230.512695,4269.871582,4296.922852,4208.461426,4364.743652,4230.897461,0.000000,4.000000,,,,0.000000,4.000000,4.000000,4.000000,4.000000,4.000000,4.000000,4.000000,4.000000,4.000000,4.000000,4.000000,4.000000,4.000000,4.000000,100.000000,15.000000,0.000000,0.640036,-0.076050,-0.754883,0.121338,0.975113,-0.292485,-0.156252,-32.300297,-163.595032,-11.963073,,,,,,,,,,,,,,,,,,,,,,,,,,,,,,,,,,,,,,,,,,,,,,,,,,,,,,,,,,,,,,,,,,,,,,
1607716083.778984,61.000000,0.000000,4207.820313,4074.871826,4209.487305,4166.794922,4187.563965,4216.922852,4235.000000,4246.794922,4234.615234,4263.589844,4286.025879,4209.615234,4359.358887,4225.512695,0.000000,4.000000,,,,0.000000,4.000000,4.000000,4.000000,4.000000,4.000000,4.000000,4.000000,4.000000,4.000000,4.000000,4.000000,4.000000,4.000000,4.000000,100.000000,,,,,,,,,,,,,,,,,,,,,,,,,,,,,,,,,,,,,,,,,,,,,,,,,,,,,,,,,,,,,,,,,,,,,,,,,,,,,,,,,,
1607716083.786783,62.000000,0.000000,4200.897461,4071.666748,4212.179688,4170.641113,4188.846191,4217.820313,4235.641113,4252.307617,4236.153809,4265.256348,4272.692383,4216.410156,4347.948730,4228.589844,0.000000,4.000000,,,,0.000000,4.000000,4.000000,4.000000,4.000000,4.000000,4.000000,4.000000,4.000000,4.000000,4.000000,4.000000,4.000000,4.000000,4.000000,100.000000,,,,,,,,,,,,,,,,,,,,,,,,,,,,,,,,,,,,,,,,,,,,,,,,,,,,,,,,,,,,,,,,,,,,,,,,,,,,,,,,,,
1607716083.794581,63.000000,0.000000,4203.077148,4069.487061,4205.769043,4181.410156,4179.871582,4216.666504,4234.102539,4257.051270,4233.846191,4270.897461,4279.358887,4210.128418,4342.307617,4231.153809,0.000000,4.000000,,,,0.000000,4.000000,4.000000,4.000000,4.000000,4.000000,4.000000,4.000000,4.000000,4.000000,4.000000,4.000000,4.000000,4.000000,4.000000,100.000000,,,,,,,,,,,,,26.664513,10.330603,2.999146,0.680767,0.298351,83.904305,21.764059,6.447338,1.158302,0.430230,8.062917,3.259252,1.450838,0.564871,0.368845,14.938050,5.855594,1.409125,0.615368,0.397343,3.167283,1.637662,0.442974,0.590470,0.321977,1.100978,0.874964,0.529899,0.633325,0.485714,2.458974,1.036450,0.318618,0.641986,0.451101,5.069936,0.753401,0.452867,0.977770,0.420845,1.754510,0.430100,0.276120,0.475656,0.352151,4.600084,2.185800,0.413193,0.902545,0.561601,2.664901,2.380963,0.781215,0.781560,0.440851,2.687665,1.691364,0.812262,0.451133,0.284885,7.526433,6.060985,1.315439,0.860057,0.597985,9.129260,4.137379,1.723834,0.659138,0.353164
1607716083.802379,64.000000,0.000000,4204.487305,4069.871826,4204.102539,4167.051270,4174.102539,4211.922852,4236.282227,4263.974121,4233.333496,4260.769043,4287.051270,4204.102539,4339.871582,4225.256348,3402.000000,4.000000,,,,0.000000,4.000000,4.000000,4.000000,4.000000,4.000000,4.000000,4.000000,4.000000,4.000000,4.000000,4.000000,4.000000,4.000000,4.000000,100.000000,16.000000,0.000000,0.641307,-0.079163,-0.753967,0.118286,0.972671,-0.265141,-0.158206,-30.954453,-164.791336,-13.159381,,,,,,,,,,,,,,,,,,,,,,,,,,,,,,,,,,,,,,,,,,,,,,,,,,,,,,,,,,,,,,,,,,,,,,
1607716083.810178,65.000000,0.000000,4200.000000,4066.025635,4203.205078,4140.512695,4171.410156,4201.410156,4233.461426,4253.589844,4231.025879,4245.256348,4269.871582,4203.974121,4326.666504,4215.512695,3236.000000,4.000000,,,,0.000000,4.000000,4.000000,4.000000,4.000000,4.000000,4.000000,4.000000,4.000000,4.000000,4.000000,4.000000,4.000000,4.000000,4.000000,100.000000,,,,,,,,,,,,,,,,,,,,,,,,,,,,,,,,,,,,,,,,,,,,,,,,,,,,,,,,,,,,,,,,,,,,,,,,,,,,,,,,,,
1607716083.817976,66.000000,0.000000,4198.846191,4068.846191,4199.102539,4146.410156,4171.794922,4204.487305,4227.179688,4253.205078,4230.128418,4255.384766,4264.871582,4201.410156,4322.051270,4215.128418,3594.000000,4.000000,,,,0.000000,4.000000,4.000000,4.000000,4.000000,4.000000,4.000000,4.000000,4.000000,4.000000,4.000000,4.000000,4.000000,4.000000,4.000000,100.000000,,,,,,,,,,,,,,,,,,,,,,,,,,,,,,,,,,,,,,,,,,,,,,,,,,,,,,,,,,,,,,,,,,,,,,,,,,,,,,,,,,
1607716083.825775,67.000000,0.000000,4202.692383,4081.025635,4199.871582,4168.846191,4171.666504,4204.615234,4220.641113,4264.487305,4231.794922,4268.205078,4281.025879,4200.512695,4328.974121,4220.000000,3605.000000,4.000000,,,,0.000000,4.000000,4.000000,4.000000,4.000000,4.000000,4.000000,4.000000,4.000000,4.000000,4.000000,4.000000,4.000000,4.000000,4.000000,100.000000,,,,,,,,,,,,,,,,,,,,,,,,,,,,,,,,,,,,,,,,,,,,,,,,,,,,,,,,,,,,,,,,,,,,,,,,,,,,,,,,,,
1607716083.833573,68.000000,0.000000,4198.077148,4079.358887,4204.487305,4166.666504,4174.230957,4196.410156,4216.282227,4253.974121,4231.153809,4254.615234,4282.948730,4203.717773,4327.436035,4220.512695,3436.000000,4.000000,,,,0.000000,4.000000,4.000000,4.000000,4.000000,4.000000,4.000000,4.000000,4.000000,4.000000,4.000000,4.000000,4.000000,4.000000,4.000000,100.000000,17.000000,0.000000,0.643483,-0.084961,-0.752258,0.113220,0.970718,-0.273930,-0.138674,-30.206760,-164.791336,-11.215381,,,,,,,,,,,,,,,,,,,,,,,,,,,,,,,,,,,,,,,,,,,,,,,,,,,,,,,,,,,,,,,,,,,,,,
1607716083.841272,69.000000,0.000000,4190.641113,4064.871826,4201.666504,4151.410156,4183.717773,4208.461426,4217.179688,4240.769043,4229.871582,4246.794922,4267.051270,4202.692383,4321.153809,4216.282227,3510.000000,4.000000,,,,0.000000,4.000000,4.000000,4.000000,4.000000,4.000000,4.000000,4.000000,4.000000,4.000000,4.000000,4.000000,4.000000,4.000000,4.000000,100.000000,,,,,,,,,,,,,,,,,,,,,,,,,,,,,,,,,,,,,,,,,,,,,,,,,,,,,,,,,,,,,,,,,,,,,,,,,,,,,,,,,,
1607716083.849071,70.000000,0.000000,4196.282227,4071.410156,4196.410156,4152.692383,4182.563965,4219.102539,4215.512695,4242.436035,4229.743652,4262.051270,4261.794922,4202.692383,4326.153809,4217.307617,3448.000000,4.000000,,,,0.000000,4.000000,4.000000,4.000000,4.000000,4.000000,4.000000,4.000000,4.000000,4.000000,4.000000,4.000000,4.000000,4.000000,4.000000,100.000000,,,,,,,,,,,,,,,,,,,,,,,,,,,,,,,,,,,,,,,,,,,,,,,,,,,,,,,,,,,,,,,,,,,,,,,,,,,,,,,,,,
1607716083.856870,71.000000,0.000000,4197.563965,4075.641113,4201.025879,4155.256348,4169.487305,4206.153809,4213.077148,4243.205078,4231.025879,4262.051270,4271.794922,4212.820313,4327.307617,4224.743652,3545.000000,4.000000,,,,0.000000,4.000000,4.000000,4.000000,4.000000,4.000000,4.000000,4.000000,4.000000,4.000000,4.000000,4.000000,4.000000,4.000000,4.000000,100.000000,,,,,,,,,,,,,,,,,,,,,,,,,,,,,,,,,,,,,,,,,,,,,,,,,,,,,,,,,,,,,,,,,,,,,,,,,,,,,,,,,,
1607716083.864669,72.000000,0.000000,4186.153809,4058.846191,4205.512695,4149.102539,4166.538574,4200.128418,4214.871582,4247.051270,4235.128418,4251.025879,4275.641113,4217.563965,4314.358887,4224.358887,2939.000000,4.000000,,,,0.000000,4.000000,4.000000,4.000000,4.000000,4.000000,4.000000,4.000000,4.000000,4.000000,4.000000,4.000000,4.000000,4.000000,4.000000,100.000000,18.000000,0.000000,0.646551,-0.093567,-0.749695,0.105713,0.979507,-0.306645,-0.138674,-33.496605,-165.838104,-12.411689,,,,,,,,,,,,,,,,,,,,,,,,,,,,,,,,,,,,,,,,,,,,,,,,,,,,,,,,,,,,,,,,,,,,,,
1607716083.872468,73.000000,0.000000,4189.230957,4066.281982,4195.897461,4146.666504,4169.230957,4204.230957,4210.256348,4249.871582,4229.871582,4244.615234,4262.563965,4209.871582,4307.307617,4214.871582,3363.000000,4.000000,,,,0.000000,4.000000,4.000000,4.000000,4.000000,4.000000,4.000000,4.000000,4.000000,4.000000,4.000000,4.000000,4.000000,4.000000,4.000000,100.000000,,,,,,,,,,,,,,,,,,,,,,,,,,,,,,,,,,,,,,,,,,,,,,,,,,,,,,,,,,,,,,,,,,,,,,,,,,,,,,,,,,
1607716083.880267,74.000000,0.000000,4217.179688,4105.256348,4199.615234,4160.256348,4169.487305,4197.179688,4205.256348,4243.333496,4218.333496,4239.102539,4258.589844,4210.512695,4318.333496,4226.538574,3510.000000,4.000000,,,,0.000000,4.000000,4.000000,4.000000,4.000000,4.000000,4.000000,4.000000,4.000000,4.000000,4.000000,4.000000,4.000000,4.000000,4.000000,100.000000,,,,,,,,,,,,,,,,,,,,,,,,,,,,,,,,,,,,,,,,,,,,,,,,,,,,,,,,,,,,,,,,,,,,,,,,,,,,,,,,,,
1607716083.888066,75.000000,0.000000,4248.846191,4136.538574,4226.666504,4181.025879,4176.538574,4200.641113,4217.563965,4249.743652,4219.102539,4241.025879,4279.358887,4228.461426,4340.384766,4259.230957,3403.000000,4.000000,,,,0.000000,4.000000,4.000000,4.000000,4.000000,4.000000,4.000000,4.000000,4.000000,4.000000,4.000000,4.000000,4.000000,4.000000,4.000000,100.000000,,,,,,,,,,,,,,,,,,,,,,,,,,,,,,,,,,,,,,,,,,,,,,,,,,,,,,,,,,,,,,,,,,,,,,,,,,,,,,,,,,
1607716083.895865,76.000000,0.000000,4254.743652,4143.717773,4229.358887,4179.230957,4179.487305,4209.230957,4220.256348,4249.487305,4221.153809,4240.000000,4278.461426,4231.410156,4345.641113,4261.666504,3516.000000,4.000000,,,,0.000000,4.000000,4.000000,4.000000,4.000000,4.000000,4.000000,4.000000,4.000000,4.000000,4.000000,4.000000,4.000000,4.000000,4.000000,100.000000,19.000000,0.000000,0.649372,-0.101685,-0.747192,0.098389,0.998062,-0.300786,-0.128908,-33.197529,-164.641800,-12.262150,,,,,,,,,,,,,,,,,,,,,,,,,,,,,,,,,,,,,,,,,,,,,,,,,,,,,,,,,,,,,,,,,,,,,,
1607716083.903663,77.000000,0.000000,4238.333496,4141.025879,4202.820313,4167.179688,4169.230957,4193.205078,4195.384766,4225.000000,4214.102539,4229.487305,4251.922852,4211.410156,4325.897461,4235.641113,3010.000000,4.000000,,,,0.000000,4.000000,4.000000,4.000000,4.000000,4.000000,4.000000,4.000000,4.000000,4.000000,4.000000,4.000000,4.000000,4.000000,4.000000,100.000000,,,,,,,,,,,,,,,,,,,,,,,,,,,,,,,,,,,,,,,,,,,,,,,,,,,,,,,,,,,,,,,,,,,,,,,,,,,,,,,,,,
1607716083.911362,78.000000,0.000000,4229.358887,4138.461426,4192.179688,4169.743652,4166.410156,4179.615234,4184.487305,4211.794922,4213.974121,4229.358887,4244.102539,4199.871582,4306.794922,4226.410156,3510.000000,4.000000,,,,0.000000,4.000000,4.000000,4.000000,4.000000,4.000000,4.000000,4.000000,4.000000,4.000000,4.000000,4.000000,4.000000,4.000000,4.000000,100.000000,,,,,,,,,,,,,,,,,,,,,,,,,,,,,,,,,,,,,,,,,,,,,,,,,,,,,,,,,,,,,,,,,,,,,,,,,,,,,,,,,,
1607716083.919160,79.000000,0.000000,4233.461426,4135.512695,4197.948730,4176.153809,4174.487305,4184.102539,4197.051270,4216.410156,4218.589844,4234.102539,4252.307617,4202.563965,4305.000000,4230.769043,3403.000000,4.000000,,,,0.000000,4.000000,4.000000,4.000000,4.000000,4.000000,4.000000,4.000000,4.000000,4.000000,4.000000,4.000000,4.000000,4.000000,4.000000,100.000000,,,,,,,,,,,,,22.337708,8.556799,2.926598,0.679919,0.291068,67.533089,18.413424,5.893602,0.977829,0.445602,7.179243,2.742082,1.543087,0.568255,0.373095,12.584999,4.729527,1.486239,0.564547,0.420255,2.662616,1.351915,0.450560,0.524743,0.325370,1.030764,0.800426,0.669774,0.590483,0.543066,2.500734,0.883702,0.409651,0.572382,0.425883,4.782276,0.804559,0.602075,0.874607,0.434313,1.723438,0.446730,0.319797,0.431642,0.338754,4.066600,1.905655,0.442813,0.834218,0.549887,2.676577,1.901271,1.048494,0.831121,0.477960,2.572492,1.427286,0.987124,0.462685,0.283726,7.640464,4.453162,1.544575,0.824533,0.600730,8.123189,3.385316,1.819078,0.640215,0.378308
1607716083.926959,80.000000,0.000000,4234.102539,4127.436035,4199.487305,4173.333496,4182.692383,4189.230957,4203.846191,4215.897461,4215.641113,4225.897461,4246.922852,4202.692383,4307.051270,4228.205078,3516.000000,4.000000,,,,0.000000,4.000000,4.000000,4.000000,4.000000,4.000000,4.000000,4.000000,4.000000,4.000000,4.000000,4.000000,4.000000,4.000000,4.000000,100.000000,20.000000,0.000000,0.651228,-0.106995,-0.745483,0.093323,0.988296,-0.286137,-0.127443,-32.449837,-164.940872,-9.869535,,,,,,,,,,,,,,,,,,,,,,,,,,,,,,,,,,,,,,,,,,,,,,,,,,,,,,,,,,,,,,,,,,,,,,
1607716083.934757,81.000000,0.000000,4235.128418,4126.153809,4201.666504,4170.897461,4182.307617,4190.384766,4207.563965,4211.794922,4212.563965,4215.641113,4238.461426,4200.641113,4301.666504,4227.051270,3010.000000,4.000000,,,,0.000000,4.000000,4.000000,4.000000,4.000000,4.000000,4.000000,4.000000,4.000000,4.000000,4.000000,4.000000,4.000000,4.000000,4.000000,100.000000,,,,,,,,,,,,,,,,,,,,,,,,,,,,,,,,,,,,,,,,,,,,,,,,,,,,,,,,,,,,,,,,,,,,,,,,,,,,,,,,,,
1607716083.942556,82.000000,0.000000,4235.897461,4132.436035,4202.307617,4169.615234,4173.717773,4183.717773,4210.769043,4213.205078,4210.641113,4215.000000,4245.128418,4201.666504,4296.025879,4232.307617,3510.000000,4.000000,,,,0.000000,4.000000,4.000000,4.000000,4.000000,4.000000,4.000000,4.000000,4.000000,4.000000,4.000000,4.000000,4.000000,4.000000,4.000000,100.000000,,,,,,,,,,,,,,,,,,,,,,,,,,,,,,,,,,,,,,,,,,,,,,,,,,,,,,,,,,,,,,,,,,,,,,,,,,,,,,,,,,
1607716083.950354,83.000000,0.000000,4231.410156,4128.589844,4204.102539,4168.589844,4173.846191,4186.282227,4208.589844,4216.538574,4211.410156,4224.102539,4250.000000,4206.153809,4292.820313,4231.922852,3403.000000,4.000000,,,,0.000000,4.000000,4.000000,4.000000,4.000000,4.000000,4.000000,4.000000,4.000000,4.000000,4.000000,4.000000,4.000000,4.000000,4.000000,100.000000,,,,,,,,,,,,,,,,,,,,,,,,,,,,,,,,,,,,,,,,,,,,,,,,,,,,,,,,,,,,,,,,,,,,,,,,,,,,,,,,,,
1607716083.958153,84.000000,0.000000,4241.153809,4132.948730,4213.846191,4181.410156,4181.666504,4203.974121,4208.974121,4220.769043,4214.487305,4237.179688,4251.025879,4215.897461,4295.128418,4234.615234,3516.000000,4.000000,,,,0.000000,4.000000,4.000000,4.000000,4.000000,4.000000,4.000000,4.000000,4.000000,4.000000,4.000000,4.000000,4.000000,4.000000,4.000000,100.000000,21.000000,0.000000,0.652847,-0.111511,-0.743896,0.089294,0.988785,-0.278813,-0.132326,-31.403067,-164.791336,-11.215381,,,,,,,,,,,,,,,,,,,,,,,,,,,,,,,,,,,,,,,,,,,,,,,,,,,,,,,,,,,,,,,,,,,,,,
1607716083.965951,85.000000,0.000000,4247.563965,4144.358887,4212.436035,4186.538574,4176.794922,4198.974121,4207.436035,4221.025879,4208.974121,4233.974121,4252.692383,4215.897461,4289.230957,4235.128418,3010.000000,4.000000,,,,0.000000,4.000000,4.000000,4.000000,4.000000,4.000000,4.000000,4.000000,4.000000,4.000000,4.000000,4.000000,4.000000,4.000000,4.000000,100.000000,,,,,,,,,,,,,,,,,,,,,,,,,,,,,,,,,,,,,,,,,,,,,,,,,,,,,,,,,,,,,,,,,,,,,,,,,,,,,,,,,,
1607716083.973651,86.000000,0.000000,4226.794922,4135.384766,4196.538574,4170.512695,4166.410156,4171.025879,4195.256348,4212.307617,4199.102539,4222.179688,4244.871582,4204.615234,4268.589844,4224.743652,3510.000000,4.000000,,,,0.000000,4.000000,4.000000,4.000000,4.000000,4.000000,4.000000,4.000000,4.000000,4.000000,4.000000,4.000000,4.000000,4.000000,4.000000,100.000000,,,,,,,,,,,,,,,,,,,,,,,,,,,,,,,,,,,,,,,,,,,,,,,,,,,,,,,,,,,,,,,,,,,,,,,,,,,,,,,,,,
1607716083.981450,87.000000,0.000000,4209.743652,4119.871582,4189.615234,4162.820313,4160.000000,4160.256348,4186.282227,4203.589844,4198.077148,4213.205078,4227.692383,4197.948730,4259.230957,4212.436035,3403.000000,4.000000,,,,0.000000,4.000000,4.000000,4.000000,4.000000,4.000000,4.000000,4.000000,4.000000,4.000000,4.000000,4.000000,4.000000,4.000000,4.000000,100.000000,,,,,,,,,,,,,,,,,,,,,,,,,,,,,,,,,,,,,,,,,,,,,,,,,,,,,,,,,,,,,,,,,,,,,,,,,,,,,,,,,,
1607716083.989249,88.000000,0.000000,4210.769043,4120.384766,4187.692383,4171.538574,4153.077148,4158.077148,4180.897461,4197.307617,4197.820313,4202.179688,4212.948730,4188.461426,4261.666504,4203.077148,3516.000000,4.000000,,,,0.000000,4.000000,4.000000,4.000000,4.000000,4.000000,4.000000,4.000000,4.000000,4.000000,4.000000,4.000000,4.000000,4.000000,4.000000,100.000000,22.000000,0.000000,0.654312,-0.116150,-0.742371,0.085266,0.963882,-0.271489,-0.127932,-32.898453,-166.137177,-13.308919,,,,,,,,,,,,,,,,,,,,,,,,,,,,,,,,,,,,,,,,,,,,,,,,,,,,,,,,,,,,,,,,,,,,,,
1607716083.997049,89.000000,0.000000,4213.077148,4130.384766,4186.538574,4173.077148,4158.205078,4156.282227,4177.692383,4203.589844,4198.461426,4203.589844,4212.948730,4180.256348,4265.641113,4203.333496,3010.000000,4.000000,,,,0.000000,4.000000,4.000000,4.000000,4.000000,4.000000,4.000000,4.000000,4.000000,4.000000,4.000000,4.000000,4.000000,4.000000,4.000000,100.000000,,,,,,,,,,,,,,,,,,,,,,,,,,,,,,,,,,,,,,,,,,,,,,,,,,,,,,,,,,,,,,,,,,,,,,,,,,,,,,,,,,
1607716084.004848,90.000000,0.000000,4215.641113,4141.282227,4195.000000,4171.666504,4172.692383,4172.820313,4185.000000,4216.282227,4203.461426,4218.077148,4223.974121,4191.025879,4273.205078,4214.487305,3510.000000,4.000000,,,,0.000000,4.000000,4.000000,4.000000,4.000000,4.000000,4.000000,4.000000,4.000000,4.000000,4.000000,4.000000,4.000000,4.000000,4.000000,100.000000,,,,,,,,,,,,,,,,,,,,,,,,,,,,,,,,,,,,,,,,,,,,,,,,,,,,,,,,,,,,,,,,,,,,,,,,,,,,,,,,,,
1607716084.012647,91.000000,0.000000,4219.358887,4145.128418,4201.538574,4181.666504,4171.025879,4182.563965,4190.128418,4211.025879,4203.077148,4220.128418,4232.563965,4202.563965,4279.615234,4219.487305,3403.000000,4.000000,,,,0.000000,4.000000,4.000000,4.000000,4.000000,4.000000,4.000000,4.000000,4.000000,4.000000,4.000000,4.000000,4.000000,4.000000,4.000000,100.000000,,,,,,,,,,,,,,,,,,,,,,,,,,,,,,,,,,,,,,,,,,,,,,,,,,,,,,,,,,,,,,,,,,,,,,,,,,,,,,,,,,
1607716084.020447,92.000000,0.000000,4220.000000,4145.256348,4201.025879,4189.230957,4168.717773,4176.538574,4188.974121,4204.487305,4203.589844,4218.205078,4230.769043,4201.025879,4278.205078,4215.256348,3516.000000,4.000000,,,,0.000000,4.000000,4.000000,4.000000,4.000000,4.000000,4.000000,4.000000,4.000000,4.000000,4.000000,4.000000,4.000000,4.000000,4.000000,100.000000,23.000000,0.000000,0.655095,-0.118591,-0.741516,0.083313,0.975113,-0.280766,-0.119142,-31.403067,-164.342712,-11.963073,,,,,,,,,,,,,,,,,,,,,,,,,,,,,,,,,,,,,,,,,,,,,,,,,,,,,,,,,,,,,,,,,,,,,,
1607716084.028246,93.000000,0.000000,4216.410156,4143.333496,4193.589844,4177.692383,4174.358887,4171.666504,4184.743652,4209.102539,4203.205078,4215.897461,4220.000000,4194.358887,4270.512695,4210.128418,3010.000000,4.000000,,,,0.000000,4.000000,4.000000,4.000000,4.000000,4.000000,4.000000,4.000000,4.000000,4.000000,4.000000,4.000000,4.000000,4.000000,4.000000,100.000000,,,,,,,,,,,,,,,,,,,,,,,,,,,,,,,,,,,,,,,,,,,,,,,,,,,,,,,,,,,,,,,,,,,,,,,,,,,,,,,,,,
1607716084.036046,94.000000,0.000000,4212.307617,4140.641113,4185.384766,4166.794922,4172.563965,4168.974121,4184.102539,4208.846191,4198.333496,4205.000000,4212.692383,4188.205078,4262.692383,4205.000000,3510.000000,4.000000,,,,0.000000,4.000000,4.000000,4.000000,4.000000,4.000000,4.000000,4.000000,4.000000,4.000000,4.000000,4.000000,4.000000,4.000000,4.000000,100.000000,,,,,,,,,,,,,,,,,,,,,,,,,,,,,,,,,,,,,,,,,,,,,,,,,,,,,,,,,,,,,,,,,,,,,,,,,,,,,,,,,,
1607716084.043845,95.000000,0.000000,4214.871582,4142.820313,4192.051270,4176.282227,4169.230957,4171.538574,4195.000000,4203.717773,4200.641113,4200.256348,4214.615234,4187.820313,4261.922852,4201.538574,3403.000000,4.000000,,,,0.000000,4.000000,4.000000,4.000000,4.000000,4.000000,4.000000,4.000000,4.000000,4.000000,4.000000,4.000000,4.000000,4.000000,4.000000,100.000000,,,,,,,,,,,,,16.459467,6.101280,2.632589,0.682195,0.278602,48.347233,13.514856,4.837463,0.795252,0.441490,5.795405,2.082508,1.569946,0.549484,0.365963,9.602060,3.326214,1.548025,0.524453,0.454299,2.087207,1.036454,0.455783,0.472718,0.336837,0.899375,0.666488,0.774082,0.566396,0.614129,2.295731,0.704526,0.484442,0.509986,0.397461,3.972452,0.910590,0.760212,0.772845,0.437584,1.632243,0.525292,0.419368,0.422231,0.324196,3.580965,1.705752,0.525647,0.799950,0.533288,3.218675,1.553467,1.295138,0.874616,0.504499,2.493427,1.140087,1.124816,0.459331,0.282949,9.729750,3.635988,1.759443,0.804622,0.598951,6.612658,2.425096,1.834137,0.627025,0.396083
1607716084.051544,96.000000,0.000000,4212.563965,4141.153809,4197.179688,4176.794922,4171.025879,4174.743652,4198.589844,4198.461426,4199.358887,4200.641113,4215.769043,4188.461426,4259.743652,4201.410156,3516.000000,4.000000,,,,0.000000,4.000000,4.000000,4.000000,4.000000,4.000000,4.000000,4.000000,4.000000,4.000000,4.000000,4.000000,4.000000,4.000000,4.000000,100.000000,24.000000,0.000000,0.656645,-0.123840,-0.739746,0.079102,0.973648,-0.303227,-0.114260,-30.356298,-163.445480,-11.065843,,,,,,,,,,,,,,,,,,,,,,,,,,,,,,,,,,,,,,,,,,,,,,,,,,,,,,,,,,,,,,,,,,,,,,
1607716084.059342,97.000000,0.000000,4202.179688,4133.846191,4187.307617,4163.846191,4169.743652,4166.922852,4188.333496,4192.179688,4189.358887,4194.615234,4213.205078,4186.153809,4246.410156,4199.102539,3010.000000,4.000000,,,,0.000000,4.000000,4.000000,4.000000,4.000000,4.000000,4.000000,4.000000,4.000000,4.000000,4.000000,4.000000,4.000000,4.000000,4.000000,100.000000,,,,,,,,,,,,,,,,,,,,,,,,,,,,,,,,,,,,,,,,,,,,,,,,,,,,,,,,,,,,,,,,,,,,,,,,,,,,,,,,,,
1607716084.067141,98.000000,0.000000,4205.256348,4136.025879,4188.846191,4171.922852,4167.820313,4164.487305,4188.717773,4192.051270,4189.358887,4197.436035,4212.692383,4191.025879,4243.461426,4201.794922,3510.000000,4.000000,,,,0.000000,4.000000,4.000000,4.000000,4.000000,4.000000,4.000000,4.000000,4.000000,4.000000,4.000000,4.000000,4.000000,4.000000,4.000000,100.000000,,,,,,,,,,,,,,,,,,,,,,,,,,,,,,,,,,,,,,,,,,,,,,,,,,,,,,,,,,,,,,,,,,,,,,,,,,,,,,,,,,
1607716084.074940,99.000000,0.000000,4217.436035,4143.205078,4204.102539,4191.794922,4173.974121,4181.794922,4199.487305,4200.641113,4199.358887,4207.692383,4213.717773,4201.410156,4255.769043,4207.307617,3403.000000,4.000000,,,,0.000000,4.000000,4.000000,4.000000,4.000000,4.000000,4.000000,4.000000,4.000000,4.000000,4.000000,4.000000,4.000000,4.000000,4.000000,100.000000,,,,,,,,,,,,,,,,,,,,,,,,,,,,,,,,,,,,,,,,,,,,,,,,,,,,,,,,,,,,,,,,,,,,,,,,,,,,,,,,,,
1607716084.082738,100.000000,0.000000,4215.000000,4142.179688,4203.461426,4187.563965,4178.589844,4190.384766,4199.871582,4202.948730,4200.897461,4203.077148,4215.128418,4201.410156,4254.358887,4203.974121,3516.000000,4.000000,,,,0.000000,4.000000,4.000000,4.000000,4.000000,4.000000,4.000000,4.000000,4.000000,4.000000,4.000000,4.000000,4.000000,4.000000,4.000000,100.000000,25.000000,0.000000,0.657844,-0.128235,-0.738281,0.075745,0.990250,-0.291020,-0.119631,-33.496605,-164.791336,-12.411689,,,,,,,,,,,,,,,,,,,,,,,,,,,,,,,,,,,,,,,,,,,,,,,,,,,,,,,,,,,,,,,,,,,,,,
1607716084.090537,101.000000,0.000000,4206.153809,4138.589844,4197.820313,4176.666504,4176.538574,4181.153809,4198.589844,4202.692383,4197.563965,4196.410156,4219.871582,4198.461426,4246.153809,4205.384766,3010.000000,4.000000,,,,0.000000,4.000000,4.000000,4.000000,4.000000,4.000000,4.000000,4.000000,4.000000,4.000000,4.000000,4.000000,4.000000,4.000000,4.000000,100.000000,,,,,,,,,,,,,,,,,,,,,,,,,,,,,,,,,,,,,,,,,,,,,,,,,,,,,,,,,,,,,,,,,,,,,,,,,,,,,,,,,,
1607716084.098336,102.000000,0.000000,4207.051270,4139.487305,4204.743652,4183.589844,4172.179688,4181.794922,4203.974121,4205.769043,4199.615234,4201.666504,4220.128418,4202.051270,4249.102539,4214.871582,3510.000000,4.000000,,,,0.000000,4.000000,4.000000,4.000000,4.000000,4.000000,4.000000,4.000000,4.000000,4.000000,4.000000,4.000000,4.000000,4.000000,4.000000,100.000000,,,,,,,,,,,,,,,,,,,,,,,,,,,,,,,,,,,,,,,,,,,,,,,,,,,,,,,,,,,,,,,,,,,,,,,,,,,,,,,,,,
1607716084.106134,103.000000,0.000000,4211.794922,4146.794922,4204.743652,4188.589844,4170.000000,4187.436035,4201.922852,4203.846191,4198.974121,4201.538574,4215.384766,4204.102539,4244.615234,4209.743652,3403.000000,4.000000,,,,0.000000,4.000000,4.000000,4.000000,4.000000,4.000000,4.000000,4.000000,4.000000,4.000000,4.000000,4.000000,4.000000,4.000000,4.000000,100.000000,,,,,,,,,,,,,,,,,,,,,,,,,,,,,,,,,,,,,,,,,,,,,,,,,,,,,,,,,,,,,,,,,,,,,,,,,,,,,,,,,,
1607716084.113933,104.000000,0.000000,4213.974121,4155.384766,4200.128418,4182.820313,4176.794922,4187.692383,4201.794922,4200.128418,4192.563965,4190.641113,4215.000000,4201.282227,4235.256348,4199.743652,3516.000000,4.000000,,,,0.000000,4.000000,4.000000,4.000000,4.000000,4.000000,4.000000,4.000000,4.000000,4.000000,4.000000,4.000000,4.000000,4.000000,4.000000,100.000000,26.000000,0.000000,0.658757,-0.131531,-0.737122,0.073425,0.977066,-0.281743,-0.115724,-31.702145,-164.193176,-12.561227,,,,,,,,,,,,,,,,,,,,,,,,,,,,,,,,,,,,,,,,,,,,,,,,,,,,,,,,,,,,,,,,,,,,,,
1607716084.121632,105.000000,0.000000,4213.717773,4149.615234,4209.487305,4181.153809,4186.666504,4196.153809,4212.307617,4198.846191,4191.538574,4185.512695,4215.256348,4199.743652,4236.922852,4208.205078,3010.000000,4.000000,,,,0.000000,4.000000,4.000000,4.000000,4.000000,4.000000,4.000000,4.000000,4.000000,4.000000,4.000000,4.000000,4.000000,4.000000,4.000000,100.000000,,,,,,,,,,,,,,,,,,,,,,,,,,,,,,,,,,,,,,,,,,,,,,,,,,,,,,,,,,,,,,,,,,,,,,,,,,,,,,,,,,
1607716084.129431,106.000000,0.000000,4218.205078,4145.384766,4217.820313,4187.948730,4190.897461,4204.487305,4219.615234,4204.743652,4202.436035,4201.025879,4216.666504,4204.871582,4239.358887,4221.025879,3510.000000,4.000000,,,,0.000000,4.000000,4.000000,4.000000,4.000000,4.000000,4.000000,4.000000,4.000000,4.000000,4.000000,4.000000,4.000000,4.000000,4.000000,100.000000,,,,,,,,,,,,,,,,,,,,,,,,,,,,,,,,,,,,,,,,,,,,,,,,,,,,,,,,,,,,,,,,,,,,,,,,,,,,,,,,,,
1607716084.137230,107.000000,0.000000,4216.538574,4150.769043,4209.358887,4187.179688,4183.205078,4192.692383,4211.922852,4201.282227,4202.051270,4210.256348,4215.897461,4203.717773,4234.102539,4216.025879,3403.000000,4.000000,,,,0.000000,4.000000,4.000000,4.000000,4.000000,4.000000,4.000000,4.000000,4.000000,4.000000,4.000000,4.000000,4.000000,4.000000,4.000000,100.000000,,,,,,,,,,,,,,,,,,,,,,,,,,,,,,,,,,,,,,,,,,,,,,,,,,,,,,,,,,,,,,,,,,,,,,,,,,,,,,,,,,
1607716084.145029,108.000000,0.000000,4204.743652,4144.615234,4196.794922,4174.230957,4172.436035,4182.948730,4203.333496,4182.948730,4186.153809,4194.487305,4208.077148,4192.307617,4230.256348,4205.000000,3516.000000,4.000000,,,,0.000000,4.000000,4.000000,4.000000,4.000000,4.000000,4.000000,4.000000,4.000000,4.000000,4.000000,4.000000,4.000000,4.000000,4.000000,100.000000,27.000000,0.000000,0.659371,-0.134155,-0.736267,0.071716,0.984390,-0.290532,-0.112306,-32.300297,-164.342712,-11.663997,,,,,,,,,,,,,,,,,,,,,,,,,,,,,,,,,,,,,,,,,,,,,,,,,,,,,,,,,,,,,,,,,,,,,,
1607716084.152828,109.000000,0.000000,4198.717773,4134.871582,4188.205078,4165.897461,4167.820313,4185.769043,4199.615234,4170.512695,4178.846191,4183.077148,4198.974121,4184.487305,4225.769043,4196.922852,3010.000000,4.000000,,,,0.000000,4.000000,4.000000,4.000000,4.000000,4.000000,4.000000,4.000000,4.000000,4.000000,4.000000,4.000000,4.000000,4.000000,4.000000,100.000000,,,,,,,,,,,,,,,,,,,,,,,,,,,,,,,,,,,,,,,,,,,,,,,,,,,,,,,,,,,,,,,,,,,,,,,,,,,,,,,,,,
1607716084.160627,110.000000,0.000000,4203.974121,4139.743652,4180.897461,4168.589844,4168.077148,4186.282227,4192.948730,4168.717773,4180.000000,4181.410156,4196.666504,4184.871582,4223.461426,4193.461426,3510.000000,4.000000,,,,0.000000,4.000000,4.000000,4.000000,4.000000,4.000000,4.000000,4.000000,4.000000,4.000000,4.000000,4.000000,4.000000,4.000000,4.000000,100.000000,,,,,,,,,,,,,,,,,,,,,,,,,,,,,,,,,,,,,,,,,,,,,,,,,,,,,,,,,,,,,,,,,,,,,,,,,,,,,,,,,,
1607716084.168426,111.000000,0.000000,4207.563965,4144.487305,4184.743652,4174.358887,4167.436035,4183.077148,4187.820313,4167.051270,4180.384766,4178.077148,4202.948730,4185.897461,4230.384766,4198.077148,3403.000000,4.000000,,,,0.000000,4.000000,4.000000,4.000000,4.000000,4.000000,4.000000,4.000000,4.000000,4.000000,4.000000,4.000000,4.000000,4.000000,4.000000,100.000000,,,,,,,,,,,,,10.617944,3.749619,2.222200,0.691222,0.263708,32.031963,8.609472,3.618777,0.660340,0.420334,4.235575,1.490895,1.515405,0.510773,0.351673,6.876248,2.059317,1.572018,0.509196,0.502923,1.667723,0.772865,0.453483,0.435313,0.352461,0.731526,0.514347,0.812410,0.561985,0.687050,1.934257,0.532998,0.534729,0.458948,0.373464,2.966632,1.060429,0.913164,0.682982,0.431134,1.578119,0.642258,0.538758,0.446305,0.307077,3.611943,1.659993,0.631738,0.797780,0.509931,4.664783,1.452358,1.458205,0.911580,0.520592,2.464275,0.932344,1.186049,0.442347,0.283880,15.302840,3.987122,1.914867,0.830277,0.588600,5.072155,1.590286,1.761225,0.628318,0.402945
1607716084.176225,112.000000,0.000000,4202.948730,4138.333496,4186.282227,4166.410156,4159.487305,4175.512695,4181.538574,4159.871582,4176.794922,4180.641113,4205.000000,4178.717773,4233.717773,4197.179688,3516.000000,4.000000,,,,0.000000,4.000000,4.000000,4.000000,4.000000,4.000000,4.000000,4.000000,4.000000,4.000000,4.000000,4.000000,4.000000,4.000000,4.000000,100.000000,28.000000,0.000000,0.660238,-0.137756,-0.735046,0.069397,0.988785,-0.300298,-0.116213,-31.851683,-165.090408,-11.215381,,,,,,,,,,,,,,,,,,,,,,,,,,,,,,,,,,,,,,,,,,,,,,,,,,,,,,,,,,,,,,,,,,,,,,
1607716084.184023,113.000000,0.000000,4199.743652,4134.102539,4176.153809,4156.922852,4155.769043,4163.974121,4176.153809,4157.179688,4173.589844,4184.230957,4199.871582,4173.717773,4227.820313,4188.461426,3010.000000,4.000000,,,,0.000000,4.000000,4.000000,4.000000,4.000000,4.000000,4.000000,4.000000,4.000000,4.000000,4.000000,4.000000,4.000000,4.000000,4.000000,100.000000,,,,,,,,,,,,,,,,,,,,,,,,,,,,,,,,,,,,,,,,,,,,,,,,,,,,,,,,,,,,,,,,,,,,,,,,,,,,,,,,,,
1607716084.191723,114.000000,0.000000,4197.563965,4134.871582,4177.307617,4165.769043,4165.384766,4169.871582,4181.025879,4163.205078,4181.282227,4183.461426,4197.563965,4175.769043,4227.436035,4186.410156,3510.000000,4.000000,,,,0.000000,4.000000,4.000000,4.000000,4.000000,4.000000,4.000000,4.000000,4.000000,4.000000,4.000000,4.000000,4.000000,4.000000,4.000000,100.000000,,,,,,,,,,,,,,,,,,,,,,,,,,,,,,,,,,,,,,,,,,,,,,,,,,,,,,,,,,,,,,,,,,,,,,,,,,,,,,,,,,
1607716084.199522,115.000000,0.000000,4191.666504,4139.358887,4184.615234,4170.769043,4176.538574,4184.615234,4187.051270,4171.922852,4189.230957,4189.358887,4200.384766,4178.974121,4233.589844,4189.871582,3403.000000,4.000000,,,,0.000000,4.000000,4.000000,4.000000,4.000000,4.000000,4.000000,4.000000,4.000000,4.000000,4.000000,4.000000,4.000000,4.000000,4.000000,100.000000,,,,,,,,,,,,,,,,,,,,,,,,,,,,,,,,,,,,,,,,,,,,,,,,,,,,,,,,,,,,,,,,,,,,,,,,,,,,,,,,,,
1607716084.207322,116.000000,0.000000,4189.615234,4144.230957,4182.051270,4157.948730,4167.436035,4167.692383,4181.153809,4176.282227,4186.538574,4197.051270,4205.641113,4184.615234,4233.589844,4194.102539,3516.000000,4.000000,,,,0.000000,4.000000,4.000000,4.000000,4.000000,4.000000,4.000000,4.000000,4.000000,4.000000,4.000000,4.000000,4.000000,4.000000,4.000000,100.000000,29.000000,0.000000,0.660902,-0.140686,-0.734070,0.067505,0.971695,-0.309087,-0.105959,-31.702145,-165.688568,-11.065843,,,,,,,,,,,,,,,,,,,,,,,,,,,,,,,,,,,,,,,,,,,,,,,,,,,,,,,,,,,,,,,,,,,,,,
1607716084.215121,117.000000,0.000000,4186.666504,4137.948730,4173.589844,4150.000000,4152.051270,4142.948730,4167.307617,4162.820313,4180.384766,4185.512695,4196.794922,4183.589844,4220.641113,4194.358887,3010.000000,4.000000,,,,0.000000,4.000000,4.000000,4.000000,4.000000,4.000000,4.000000,4.000000,4.000000,4.000000,4.000000,4.000000,4.000000,4.000000,4.000000,100.000000,,,,,,,,,,,,,,,,,,,,,,,,,,,,,,,,,,,,,,,,,,,,,,,,,,,,,,,,,,,,,,,,,,,,,,,,,,,,,,,,,,
1607716084.222920,118.000000,0.000000,4181.922852,4134.743652,4169.230957,4158.589844,4157.820313,4156.794922,4161.025879,4151.410156,4175.000000,4171.922852,4182.051270,4172.179688,4215.384766,4186.666504,3510.000000,4.000000,,,,0.000000,4.000000,4.000000,4.000000,4.000000,4.000000,4.000000,4.000000,4.000000,4.000000,4.000000,4.000000,4.000000,4.000000,4.000000,100.000000,,,,,,,,,,,,,,,,,,,,,,,,,,,,,,,,,,,,,,,,,,,,,,,,,,,,,,,,,,,,,,,,,,,,,,,,,,,,,,,,,,
1607716084.230720,119.000000,0.000000,4191.025879,4148.717773,4175.256348,4168.333496,4171.666504,4177.436035,4167.307617,4162.563965,4170.641113,4177.436035,4189.102539,4168.717773,4228.333496,4185.000000,3403.000000,4.000000,,,,0.000000,4.000000,4.000000,4.000000,4.000000,4.000000,4.000000,4.000000,4.000000,4.000000,4.000000,4.000000,4.000000,4.000000,4.000000,100.000000,,,,,,,,,,,,,,,,,,,,,,,,,,,,,,,,,,,,,,,,,,,,,,,,,,,,,,,,,,,,,,,,,,,,,,,,,,,,,,,,,,
1607716084.238519,120.000000,0.000000,4201.794922,4158.717773,4183.846191,4173.077148,4174.615234,4172.051270,4174.743652,4166.282227,4171.410156,4186.410156,4205.384766,4173.717773,4236.410156,4191.410156,3516.000000,4.000000,,,,0.000000,4.000000,4.000000,4.000000,4.000000,4.000000,4.000000,4.000000,4.000000,4.000000,4.000000,4.000000,4.000000,4.000000,4.000000,100.000000,30.000000,0.000000,0.661308,-0.142761,-0.733398,0.066467,0.971695,-0.289067,-0.111330,-30.804913,-165.389481,-11.364920,,,,,,,,,,,,,,,,,,,,,,,,,,,,,,,,,,,,,,,,,,,,,,,,,,,,,,,,,,,,,,,,,,,,,,
1607716084.246319,121.000000,0.000000,4192.307617,4150.384766,4184.102539,4163.974121,4171.282227,4166.794922,4170.641113,4149.871582,4171.282227,4179.743652,4202.820313,4173.333496,4230.512695,4189.102539,3010.000000,4.000000,,,,0.000000,4.000000,4.000000,4.000000,4.000000,4.000000,4.000000,4.000000,4.000000,4.000000,4.000000,4.000000,4.000000,4.000000,4.000000,100.000000,,,,,,,,,,,,,,,,,,,,,,,,,,,,,,,,,,,,,,,,,,,,,,,,,,,,,,,,,,,,,,,,,,,,,,,,,,,,,,,,,,
1607716084.254118,122.000000,0.000000,4185.641113,4149.743652,4186.153809,4156.922852,4171.153809,4172.820313,4168.077148,4151.025879,4172.179688,4177.307617,4196.282227,4179.615234,4228.846191,4191.410156,3510.000000,4.000000,,,,0.000000,4.000000,4.000000,4.000000,4.000000,4.000000,4.000000,4.000000,4.000000,4.000000,4.000000,4.000000,4.000000,4.000000,4.000000,100.000000,,,,,,,,,,,,,,,,,,,,,,,,,,,,,,,,,,,,,,,,,,,,,,,,,,,,,,,,,,,,,,,,,,,,,,,,,,,,,,,,,,
1607716084.261818,123.000000,0.000000,4190.128418,4154.743652,4188.974121,4162.563965,4169.615234,4174.230957,4169.358887,4157.307617,4170.384766,4182.820313,4191.153809,4183.461426,4222.307617,4195.000000,3403.000000,4.000000,,,,0.000000,4.000000,4.000000,4.000000,4.000000,4.000000,4.000000,4.000000,4.000000,4.000000,4.000000,4.000000,4.000000,4.000000,4.000000,100.000000,,,,,,,,,,,,,,,,,,,,,,,,,,,,,,,,,,,,,,,,,,,,,,,,,,,,,,,,,,,,,,,,,,,,,,,,,,,,,,,,,,
1607716084.269617,124.000000,0.000000,4187.436035,4145.641113,4182.948730,4158.589844,4169.102539,4173.974121,4168.077148,4140.384766,4160.128418,4174.102539,4177.051270,4173.205078,4203.205078,4182.948730,3516.000000,4.000000,,,,0.000000,4.000000,4.000000,4.000000,4.000000,4.000000,4.000000,4.000000,4.000000,4.000000,4.000000,4.000000,4.000000,4.000000,4.000000,100.000000,31.000000,0.000000,0.661626,-0.144775,-0.732788,0.065674,0.986831,-0.300786,-0.110353,-30.954453,-163.595032,-11.215381,,,,,,,,,,,,,,,,,,,,,,,,,,,,,,,,,,,,,,,,,,,,,,,,,,,,,,,,,,,,,,,,,,,,,,
1607716084.277417,125.000000,0.000000,4179.230957,4132.948730,4182.820313,4144.487305,4165.512695,4166.153809,4166.153809,4131.922852,4153.846191,4160.128418,4168.333496,4168.974121,4195.256348,4173.333496,3010.000000,4.000000,,,,0.000000,4.000000,4.000000,4.000000,4.000000,4.000000,4.000000,4.000000,4.000000,4.000000,4.000000,4.000000,4.000000,4.000000,4.000000,100.000000,,,,,,,,,,,,,,,,,,,,,,,,,,,,,,,,,,,,,,,,,,,,,,,,,,,,,,,,,,,,,,,,,,,,,,,,,,,,,,,,,,
1607716084.285217,126.000000,0.000000,4170.769043,4121.410156,4182.307617,4133.717773,4151.922852,4148.589844,4157.307617,4136.410156,4158.461426,4158.333496,4165.897461,4166.666504,4194.487305,4169.871582,3510.000000,4.000000,,,,0.000000,4.000000,4.000000,4.000000,4.000000,4.000000,4.000000,4.000000,4.000000,4.000000,4.000000,4.000000,4.000000,4.000000,4.000000,100.000000,,,,,,,,,,,,,,,,,,,,,,,,,,,,,,,,,,,,,,,,,,,,,,,,,,,,,,,,,,,,,,,,,,,,,,,,,,,,,,,,,,
1607716084.293016,127.000000,0.000000,4177.179688,4125.128418,4180.512695,4140.384766,4150.641113,4153.717773,4154.358887,4141.538574,4169.615234,4164.230957,4174.102539,4168.461426,4196.410156,4172.692383,58.000000,4.000000,,,,0.000000,4.000000,4.000000,4.000000,4.000000,4.000000,4.000000,4.000000,4.000000,4.000000,4.000000,4.000000,4.000000,4.000000,4.000000,100.000000,,,,,,,,,,,,,6.228281,2.071800,1.838423,0.711011,0.254008,21.624216,4.966268,2.593777,0.602775,0.390588,2.837826,1.089601,1.390506,0.468314,0.337528,5.029383,1.200729,1.531410,0.525142,0.564906,1.499386,0.613083,0.436542,0.410944,0.365507,0.569146,0.393507,0.786121,0.580578,0.745357,1.571030,0.406542,0.578488,0.418907,0.360155,2.016655,1.230058,1.081497,0.608846,0.417746,1.530981,0.750768,0.638848,0.486704,0.287943,4.163668,1.745923,0.720938,0.817520,0.485531,6.775042,1.579053,1.510320,0.943432,0.530192,2.441769,0.860861,1.168725,0.421302,0.286255,23.737225,5.368037,1.980944,0.916479,0.567006,3.948955,1.092078,1.620535,0.650893,0.399497
1607716084.300816,0.000000,0.000000,4207.307617,4155.384766,4202.820313,4165.384766,4169.102539,4178.974121,4176.666504,4162.948730,4187.563965,4185.128418,4206.025879,4194.102539,4220.384766,4202.051270,3416.000000,4.000000,,,,0.000000,4.000000,4.000000,4.000000,4.000000,4.000000,4.000000,4.000000,4.000000,4.000000,4.000000,4.000000,4.000000,4.000000,4.000000,100.000000,0.000000,0.000000,0.661805,-0.145691,-0.732483,0.065247,0.984390,-0.311528,-0.108888,-31.851683,-164.791336,-11.215381,,,,,,,,,,,,,,,,,,,,,,,,,,,,,,,,,,,,,,,,,,,,,,,,,,,,,,,,,,,,,,,,,,,,,,
1607716084.308615,1.000000,0.000000,4216.410156,4169.102539,4219.487305,4169.871582,4177.436035,4178.461426,4189.743652,4178.974121,4194.102539,4193.589844,4222.563965,4204.230957,4237.051270,4221.794922,3261.000000,4.000000,,,,0.000000,4.000000,4.000000,4.000000,4.000000,4.000000,4.000000,4.000000,4.000000,4.000000,4.000000,4.000000,4.000000,4.000000,4.000000,100.000000,,,,,,,,,,,,,,,,,,,,,,,,,,,,,,,,,,,,,,,,,,,,,,,,,,,,,,,,,,,,,,,,,,,,,,,,,,,,,,,,,,
1607716084.316415,2.000000,0.000000,4201.922852,4151.282227,4208.974121,4152.692383,4169.871582,4165.769043,4173.717773,4171.282227,4180.384766,4172.820313,4208.461426,4187.051270,4222.307617,4207.948730,3609.000000,4.000000,,,,0.000000,4.000000,4.000000,4.000000,4.000000,4.000000,4.000000,4.000000,4.000000,4.000000,4.000000,4.000000,4.000000,4.000000,4.000000,100.000000,,,,,,,,,,,,,,,,,,,,,,,,,,,,,,,,,,,,,,,,,,,,,,,,,,,,,,,,,,,,,,,,,,,,,,,,,,,,,,,,,,
1607716084.324215,3.000000,0.000000,4205.256348,4149.102539,4207.692383,4157.436035,4172.563965,4179.615234,4166.794922,4164.102539,4177.948730,4172.563965,4199.871582,4191.666504,4214.615234,4207.948730,3612.000000,4.000000,,,,0.000000,4.000000,4.000000,4.000000,4.000000,4.000000,4.000000,4.000000,4.000000,4.000000,4.000000,4.000000,4.000000,4.000000,4.000000,100.000000,,,,,,,,,,,,,,,,,,,,,,,,,,,,,,,,,,,,,,,,,,,,,,,,,,,,,,,,,,,,,,,,,,,,,,,,,,,,,,,,,,
1607716084.332014,4.000000,0.000000,4212.948730,4165.128418,4213.589844,4170.128418,4178.205078,4185.512695,4170.897461,4156.282227,4185.769043,4188.717773,4200.000000,4202.948730,4223.974121,4217.948730,3453.000000,4.000000,,,,0.000000,4.000000,4.000000,4.000000,4.000000,4.000000,4.000000,4.000000,4.000000,4.000000,4.000000,4.000000,4.000000,4.000000,4.000000,100.000000,1.000000,0.000000,0.662091,-0.146912,-0.732056,0.064392,0.988785,-0.307622,-0.118166,-32.300297,-165.838104,-11.663997,,,,,,,,,,,,,,,,,,,,,,,,,,,,,,,,,,,,,,,,,,,,,,,,,,,,,,,,,,,,,,,,,,,,,,
1607716084.339713,5.000000,0.000000,4202.307617,4161.794922,4200.897461,4164.230957,4167.051270,4165.256348,4160.384766,4136.666504,4174.102539,4174.743652,4195.256348,4185.897461,4217.948730,4203.205078,3518.000000,4.000000,,,,0.000000,4.000000,4.000000,4.000000,4.000000,4.000000,4.000000,4.000000,4.000000,4.000000,4.000000,4.000000,4.000000,4.000000,4.000000,100.000000,,,,,,,,,,,,,,,,,,,,,,,,,,,,,,,,,,,,,,,,,,,,,,,,,,,,,,,,,,,,,,,,,,,,,,,,,,,,,,,,,,
1607716084.347512,6.000000,0.000000,4195.256348,4151.538574,4197.436035,4164.871582,4165.641113,4160.000000,4158.077148,4137.948730,4164.743652,4167.563965,4199.102539,4177.692383,4212.436035,4196.153809,3452.000000,4.000000,,,,0.000000,4.000000,4.000000,4.000000,4.000000,4.000000,4.000000,4.000000,4.000000,4.000000,4.000000,4.000000,4.000000,4.000000,4.000000,100.000000,,,,,,,,,,,,,,,,,,,,,,,,,,,,,,,,,,,,,,,,,,,,,,,,,,,,,,,,,,,,,,,,,,,,,,,,,,,,,,,,,,
1607716084.355310,7.000000,0.000000,4195.256348,4155.000000,4205.128418,4172.563965,4180.000000,4170.000000,4164.871582,4153.846191,4174.102539,4185.897461,4203.333496,4187.051270,4216.666504,4201.794922,3557.000000,4.000000,,,,0.000000,4.000000,4.000000,4.000000,4.000000,4.000000,4.000000,4.000000,4.000000,4.000000,4.000000,4.000000,4.000000,4.000000,4.000000,100.000000,,,,,,,,,,,,,,,,,,,,,,,,,,,,,,,,,,,,,,,,,,,,,,,,,,,,,,,,,,,,,,,,,,,,,,,,,,,,,,,,,,
1607716084.363109,8.000000,0.000000,4185.897461,4154.743652,4194.871582,4167.307617,4177.820313,4170.384766,4158.589844,4146.666504,4175.256348,4180.256348,4191.794922,4177.692383,4206.922852,4190.128418,2950.000000,4.000000,,,,0.000000,4.000000,4.000000,4.000000,4.000000,4.000000,4.000000,4.000000,4.000000,4.000000,4.000000,4.000000,4.000000,4.000000,4.000000,100.000000,2.000000,0.000000,0.662439,-0.147949,-0.731628,0.063293,0.979995,-0.309087,-0.108888,-30.954453,-165.838104,-12.411689,,,,,,,,,,,,,,,,,,,,,,,,,,,,,,,,,,,,,,,,,,,,,,,,,,,,,,,,,,,,,,,,,,,,,,
1607716084.370908,9.000000,0.000000,4181.025879,4142.948730,4184.230957,4155.000000,4166.282227,4168.846191,4156.666504,4141.025879,4167.563965,4161.794922,4183.974121,4164.487305,4195.512695,4180.256348,3382.000000,4.000000,,,,0.000000,4.000000,4.000000,4.000000,4.000000,4.000000,4.000000,4.000000,4.000000,4.000000,4.000000,4.000000,4.000000,4.000000,4.000000,100.000000,,,,,,,,,,,,,,,,,,,,,,,,,,,,,,,,,,,,,,,,,,,,,,,,,,,,,,,,,,,,,,,,,,,,,,,,,,,,,,,,,,
1607716084.378707,10.000000,0.000000,4181.025879,4141.282227,4181.794922,4150.641113,4170.641113,4170.128418,4168.077148,4153.974121,4169.487305,4166.410156,4184.871582,4164.230957,4197.948730,4180.641113,3528.000000,4.000000,,,,0.000000,4.000000,4.000000,4.000000,4.000000,4.000000,4.000000,4.000000,4.000000,4.000000,4.000000,4.000000,4.000000,4.000000,4.000000,100.000000,,,,,,,,,,,,,,,,,,,,,,,,,,,,,,,,,,,,,,,,,,,,,,,,,,,,,,,,,,,,,,,,,,,,,,,,,,,,,,,,,,
1607716084.386505,11.000000,0.000000,4176.025879,4146.922852,4173.717773,4156.794922,4175.128418,4175.384766,4168.461426,4158.846191,4173.846191,4171.282227,4184.358887,4160.897461,4198.461426,4176.025879,3416.000000,4.000000,,,,0.000000,4.000000,4.000000,4.000000,4.000000,4.000000,4.000000,4.000000,4.000000,4.000000,4.000000,4.000000,4.000000,4.000000,4.000000,100.000000,,,,,,,,,,,,,,,,,,,,,,,,,,,,,,,,,,,,,,,,,,,,,,,,,,,,,,,,,,,,,,,,,,,,,,,,,,,,,,,,,,
1607716084.394304,12.000000,0.000000,4170.641113,4143.077148,4165.897461,4150.641113,4166.666504,4176.282227,4158.333496,4155.512695,4179.102539,4171.025879,4188.205078,4154.615234,4197.179688,4172.820313,3526.000000,4.000000,,,,0.000000,4.000000,4.000000,4.000000,4.000000,4.000000,4.000000,4.000000,4.000000,4.000000,4.000000,4.000000,4.000000,4.000000,4.000000,100.000000,3.000000,0.000000,0.662801,-0.148926,-0.731201,0.062134,0.974136,-0.316899,-0.114260,-31.851683,-164.791336,-11.663997,,,,,,,,,,,,,,,,,,,,,,,,,,,,,,,,,,,,,,,,,,,,,,,,,,,,,,,,,,,,,,,,,,,,,,
1607716084.402103,13.000000,0.000000,4167.307617,4137.563965,4165.897461,4134.487305,4164.102539,4161.666504,4155.128418,4159.230957,4184.102539,4175.641113,4194.615234,4157.179688,4208.717773,4171.666504,3022.000000,4.000000,,,,0.000000,4.000000,4.000000,4.000000,4.000000,4.000000,4.000000,4.000000,4.000000,4.000000,4.000000,4.000000,4.000000,4.000000,4.000000,100.000000,,,,,,,,,,,,,,,,,,,,,,,,,,,,,,,,,,,,,,,,,,,,,,,,,,,,,,,,,,,,,,,,,,,,,,,,,,,,,,,,,,
1607716084.409802,14.000000,0.000000,4167.692383,4134.230957,4168.333496,4144.487305,4170.897461,4156.666504,4162.179688,4166.666504,4180.897461,4181.922852,4192.563965,4164.871582,4217.692383,4170.897461,3528.000000,4.000000,,,,0.000000,4.000000,4.000000,4.000000,4.000000,4.000000,4.000000,4.000000,4.000000,4.000000,4.000000,4.000000,4.000000,4.000000,4.000000,100.000000,,,,,,,,,,,,,,,,,,,,,,,,,,,,,,,,,,,,,,,,,,,,,,,,,,,,,,,,,,,,,,,,,,,,,,,,,,,,,,,,,,
1607716084.417600,15.000000,0.000000,4167.179688,4129.615234,4168.077148,4150.641113,4174.230957,4172.436035,4168.846191,4166.666504,4179.487305,4185.897461,4178.974121,4167.563965,4206.922852,4169.871582,3416.000000,4.000000,,,,0.000000,4.000000,4.000000,4.000000,4.000000,4.000000,4.000000,4.000000,4.000000,4.000000,4.000000,4.000000,4.000000,4.000000,4.000000,100.000000,,,,,,,,,,,,,3.837806,1.248209,1.585868,0.739521,0.256968,17.788893,3.126024,1.972122,0.622923,0.362931,1.861207,0.918178,1.225491,0.443013,0.329699,4.272072,0.818157,1.408866,0.567931,0.632193,1.605020,0.578096,0.397596,0.399425,0.369794,0.494376,0.346903,0.725324,0.622680,0.776637,1.342424,0.351851,0.637505,0.386230,0.359869,1.346702,1.404879,1.271115,0.546908,0.401171,1.463283,0.812049,0.686417,0.519170,0.268328,5.015323,1.861717,0.751813,0.847828,0.465945,9.029614,1.818326,1.458884,0.966687,0.535933,2.410463,0.935567,1.097188,0.407804,0.288144,33.239929,7.171713,1.954480,1.042721,0.535328,3.386581,0.972193,1.443660,0.692535,0.389303
1607716084.425399,16.000000,0.000000,4167.179688,4133.846191,4169.230957,4136.153809,4174.743652,4181.282227,4164.743652,4160.384766,4188.205078,4182.051270,4175.256348,4168.333496,4199.487305,4170.384766,0.000000,4.000000,,,,0.000000,4.000000,4.000000,4.000000,4.000000,4.000000,4.000000,4.000000,4.000000,4.000000,4.000000,4.000000,4.000000,4.000000,4.000000,100.000000,4.000000,0.000000,0.662982,-0.149597,-0.730957,0.061462,0.967788,-0.300786,-0.111330,-31.702145,-165.389481,-10.617228,,,,,,,,,,,,,,,,,,,,,,,,,,,,,,,,,,,,,,,,,,,,,,,,,,,,,,,,,,,,,,,,,,,,,,
1607716084.433198,17.000000,0.000000,4163.461426,4140.256348,4165.512695,4136.410156,4169.871582,4164.871582,4153.077148,4151.025879,4183.461426,4163.077148,4182.051270,4163.077148,4204.615234,4170.128418,0.000000,4.000000,,,,0.000000,4.000000,4.000000,4.000000,4.000000,4.000000,4.000000,4.000000,4.000000,4.000000,4.000000,4.000000,4.000000,4.000000,4.000000,100.000000,,,,,,,,,,,,,,,,,,,,,,,,,,,,,,,,,,,,,,,,,,,,,,,,,,,,,,,,,,,,,,,,,,,,,,,,,,,,,,,,,,
1607716084.440997,18.000000,0.000000,4157.692383,4133.846191,4159.871582,4141.666504,4164.743652,4148.333496,4148.589844,4150.256348,4169.102539,4158.205078,4181.922852,4158.461426,4201.410156,4166.538574,0.000000,4.000000,,,,0.000000,4.000000,4.000000,4.000000,4.000000,4.000000,4.000000,4.000000,4.000000,4.000000,4.000000,4.000000,4.000000,4.000000,4.000000,100.000000,,,,,,,,,,,,,,,,,,,,,,,,,,,,,,,,,,,,,,,,,,,,,,,,,,,,,,,,,,,,,,,,,,,,,,,,,,,,,,,,,,
1607716084.448796,19.000000,0.000000,4164.743652,4139.615234,4164.102539,4145.128418,4167.692383,4160.769043,4151.282227,4157.307617,4173.846191,4179.358887,4182.436035,4164.871582,4197.563965,4170.000000,0.000000,4.000000,,,,0.000000,4.000000,4.000000,4.000000,4.000000,4.000000,4.000000,4.000000,4.000000,4.000000,4.000000,4.000000,4.000000,4.000000,4.000000,100.000000,,,,,,,,,,,,,,,,,,,,,,,,,,,,,,,,,,,,,,,,,,,,,,,,,,,,,,,,,,,,,,,,,,,,,,,,,,,,,,,,,,
1607716084.456595,20.000000,0.000000,4181.410156,4155.769043,4180.256348,4158.717773,4172.820313,4172.692383,4157.563965,4166.282227,4184.487305,4189.230957,4191.922852,4176.538574,4205.641113,4183.974121,0.000000,4.000000,,,,0.000000,4.000000,4.000000,4.000000,4.000000,4.000000,4.000000,4.000000,4.000000,4.000000,4.000000,4.000000,4.000000,4.000000,4.000000,100.000000,5.000000,0.000000,0.663314,-0.150879,-0.730469,0.060547,0.981460,-0.292973,-0.123537,-31.702145,-164.940872,-11.364920,,,,,,,,,,,,,,,,,,,,,,,,,,,,,,,,,,,,,,,,,,,,,,,,,,,,,,,,,,,,,,,,,,,,,,
1607716084.464394,21.000000,0.000000,4191.282227,4161.794922,4192.948730,4164.743652,4171.410156,4157.948730,4161.410156,4177.436035,4185.512695,4186.538574,4196.666504,4183.077148,4214.743652,4193.333496,0.000000,4.000000,,,,0.000000,4.000000,4.000000,4.000000,4.000000,4.000000,4.000000,4.000000,4.000000,4.000000,4.000000,4.000000,4.000000,4.000000,4.000000,100.000000,,,,,,,,,,,,,,,,,,,,,,,,,,,,,,,,,,,,,,,,,,,,,,,,,,,,,,,,,,,,,,,,,,,,,,,,,,,,,,,,,,
1607716084.472193,22.000000,0.000000,4186.410156,4164.230957,4188.717773,4156.410156,4165.641113,4148.205078,4154.358887,4175.641113,4182.436035,4185.641113,4188.589844,4182.820313,4205.384766,4186.666504,0.000000,4.000000,,,,0.000000,4.000000,4.000000,4.000000,4.000000,4.000000,4.000000,4.000000,4.000000,4.000000,4.000000,4.000000,4.000000,4.000000,4.000000,100.000000,,,,,,,,,,,,,,,,,,,,,,,,,,,,,,,,,,,,,,,,,,,,,,,,,,,,,,,,,,,,,,,,,,,,,,,,,,,,,,,,,,
1607716084.479892,23.000000,0.000000,4178.205078,4163.717773,4185.641113,4157.051270,4166.410156,4161.922852,4159.230957,4168.974121,4183.974121,4180.384766,4187.436035,4185.000000,4182.051270,4178.589844,0.000000,4.000000,,,,0.000000,4.000000,4.000000,4.000000,4.000000,4.000000,4.000000,4.000000,4.000000,4.000000,4.000000,4.000000,4.000000,4.000000,4.000000,100.000000,,,,,,,,,,,,,,,,,,,,,,,,,,,,,,,,,,,,,,,,,,,,,,,,,,,,,,,,,,,,,,,,,,,,,,,,,,,,,,,,,,
1607716084.487692,24.000000,0.000000,4175.256348,4157.051270,4189.487305,4158.077148,4172.436035,4164.743652,4171.666504,4170.641113,4185.897461,4171.922852,4195.256348,4185.769043,4176.922852,4178.589844,0.000000,4.000000,,,,0.000000,4.000000,4.000000,4.000000,4.000000,4.000000,4.000000,4.000000,4.000000,4.000000,4.000000,4.000000,4.000000,4.000000,4.000000,100.000000,6.000000,0.000000,0.663652,-0.151917,-0.730042,0.059387,0.990250,-0.296880,-0.122072,-31.253529,-165.389481,-11.813535,,,,,,,,,,,,,,,,,,,,,,,,,,,,,,,,,,,,,,,,,,,,,,,,,,,,,,,,,,,,,,,,,,,,,,
1607716084.495491,25.000000,0.000000,4167.307617,4145.128418,4181.025879,4142.436035,4167.051270,4152.820313,4160.769043,4171.538574,4183.333496,4165.512695,4195.000000,4176.538574,4179.487305,4169.743652,0.000000,4.000000,,,,0.000000,4.000000,4.000000,4.000000,4.000000,4.000000,4.000000,4.000000,4.000000,4.000000,4.000000,4.000000,4.000000,4.000000,4.000000,100.000000,,,,,,,,,,,,,,,,,,,,,,,,,,,,,,,,,,,,,,,,,,,,,,,,,,,,,,,,,,,,,,,,,,,,,,,,,,,,,,,,,,
1607716084.503290,26.000000,0.000000,4145.384766,4130.256348,4164.743652,4127.436035,4158.974121,4158.205078,4154.871582,4169.230957,4181.922852,4164.358887,4183.717773,4162.436035,4158.077148,4151.922852,0.000000,4.000000,,,,0.000000,4.000000,4.000000,4.000000,4.000000,4.000000,4.000000,4.000000,4.000000,4.000000,4.000000,4.000000,4.000000,4.000000,4.000000,100.000000,,,,,,,,,,,,,,,,,,,,,,,,,,,,,,,,,,,,,,,,,,,,,,,,,,,,,,,,,,,,,,,,,,,,,,,,,,,,,,,,,,
1607716084.511090,27.000000,0.000000,4119.743652,4115.000000,4153.333496,4125.128418,4166.410156,4173.974121,4169.358887,4163.717773,4178.974121,4169.871582,4174.358887,4153.205078,4126.410156,4135.897461,0.000000,4.000000,,,,0.000000,4.000000,4.000000,4.000000,4.000000,4.000000,4.000000,4.000000,4.000000,4.000000,4.000000,4.000000,4.000000,4.000000,4.000000,100.000000,,,,,,,,,,,,,,,,,,,,,,,,,,,,,,,,,,,,,,,,,,,,,,,,,,,,,,,,,,,,,,,,,,,,,,,,,,,,,,,,,,
1607716084.518889,28.000000,0.000000,4100.769043,4102.051270,4138.461426,4124.487305,4172.436035,4168.461426,4159.743652,4156.922852,4177.563965,4173.717773,4167.692383,4143.589844,4107.692383,4121.282227,0.000000,4.000000,,,,0.000000,4.000000,4.000000,4.000000,4.000000,4.000000,4.000000,4.000000,4.000000,4.000000,4.000000,4.000000,4.000000,4.000000,4.000000,100.000000,7.000000,0.000000,0.664385,-0.153137,-0.729309,0.057007,0.972183,-0.268559,-0.110353,-30.655375,-164.342712,-10.916305,,,,,,,,,,,,,,,,,,,,,,,,,,,,,,,,,,,,,,,,,,,,,,,,,,,,,,,,,,,,,,,,,,,,,,
1607716084.526689,29.000000,0.000000,4082.564209,4089.102539,4121.025879,4109.743652,4161.025879,4149.230957,4135.000000,4148.461426,4173.461426,4166.153809,4154.358887,4127.563965,4089.230713,4101.666504,0.000000,4.000000,,,,0.000000,4.000000,4.000000,4.000000,4.000000,4.000000,4.000000,4.000000,4.000000,4.000000,4.000000,4.000000,4.000000,4.000000,4.000000,100.000000,,,,,,,,,,,,,,,,,,,,,,,,,,,,,,,,,,,,,,,,,,,,,,,,,,,,,,,,,,,,,,,,,,,,,,,,,,,,,,,,,,
1607716084.534488,30.000000,0.000000,4063.076904,4074.871826,4113.205078,4100.256348,4152.692383,4142.692383,4135.128418,4137.051270,4162.820313,4155.512695,4139.871582,4113.461426,4067.435791,4085.256348,0.000000,4.000000,,,,0.000000,4.000000,4.000000,4.000000,4.000000,4.000000,4.000000,4.000000,4.000000,4.000000,4.000000,4.000000,4.000000,4.000000,4.000000,100.000000,,,,,,,,,,,,,,,,,,,,,,,,,,,,,,,,,,,,,,,,,,,,,,,,,,,,,,,,,,,,,,,,,,,,,,,,,,,,,,,,,,
1607716084.542287,31.000000,0.000000,4046.025635,4061.923096,4104.102539,4107.820313,4153.077148,4135.128418,4134.102539,4123.205078,4152.820313,4147.179688,4126.666504,4103.717773,4052.179443,4075.000000,0.000000,4.000000,,,,0.000000,4.000000,4.000000,4.000000,4.000000,4.000000,4.000000,4.000000,4.000000,4.000000,4.000000,4.000000,4.000000,4.000000,4.000000,100.000000,,,,,,,,,,,,,3.199310,1.055058,1.496088,0.771889,0.274552,17.996851,2.775259,1.760198,0.696862,0.346096,1.450103,0.907720,1.055545,0.451184,0.330382,4.267241,0.777375,1.217095,0.625211,0.691698,1.839412,0.640868,0.338940,0.403893,0.363946,0.573179,0.383545,0.668880,0.680255,0.780050,1.327247,0.376260,0.711277,0.361617,0.368677,1.013385,1.586876,1.457978,0.501350,0.385181,1.328942,0.817492,0.665426,0.527880,0.248462,5.707165,1.895684,0.709852,0.885893,0.452685,10.642220,2.021154,1.344389,0.986013,0.536616,2.385860,1.103067,1.002940,0.412854,0.287284,40.613960,8.625115,1.851697,1.172104,0.497126,3.283302,1.104530,1.267592,0.748838,0.376213
1607716084.550087,32.000000,0.000000,4029.871826,4043.333252,4090.512939,4101.282227,4153.717773,4128.205078,4123.205078,4116.922852,4147.179688,4137.436035,4104.487305,4098.717773,4030.000000,4059.615479,0.000000,4.000000,,,,0.000000,4.000000,4.000000,4.000000,4.000000,4.000000,4.000000,4.000000,4.000000,4.000000,4.000000,4.000000,4.000000,4.000000,4.000000,100.000000,8.000000,0.000000,0.666012,-0.157593,-0.727295,0.051331,0.973648,-0.296391,-0.102541,-32.001221,-163.894104,-12.262150,,,,,,,,,,,,,,,,,,,,,,,,,,,,,,,,,,,,,,,,,,,,,,,,,,,,,,,,,,,,,,,,,,,,,,
1607716084.557782,33.000000,0.000000,4025.384521,4040.000000,4095.256348,4091.923096,4156.538574,4144.615234,4132.820313,4122.820313,4147.563965,4126.922852,4095.641113,4101.538574,4022.179443,4057.564209,0.000000,4.000000,,,,0.000000,4.000000,4.000000,4.000000,4.000000,4.000000,4.000000,4.000000,4.000000,4.000000,4.000000,4.000000,4.000000,4.000000,4.000000,100.000000,,,,,,,,,,,,,,,,,,,,,,,,,,,,,,,,,,,,,,,,,,,,,,,,,,,,,,,,,,,,,,,,,,,,,,,,,,,,,,,,,,
1607716084.565577,34.000000,0.000000,4042.307617,4065.256348,4109.230957,4109.102539,4155.769043,4160.897461,4147.179688,4133.589844,4158.461426,4125.641113,4120.000000,4110.000000,4046.538574,4074.487061,0.000000,4.000000,,,,0.000000,4.000000,4.000000,4.000000,4.000000,4.000000,4.000000,4.000000,4.000000,4.000000,4.000000,4.000000,4.000000,4.000000,4.000000,100.000000,,,,,,,,,,,,,,,,,,,,,,,,,,,,,,,,,,,,,,,,,,,,,,,,,,,,,,,,,,,,,,,,,,,,,,,,,,,,,,,,,,
1607716084.573274,35.000000,0.000000,4057.051270,4085.128174,4105.769043,4132.051270,4155.000000,4160.512695,4142.563965,4138.461426,4168.974121,4137.692383,4143.333496,4111.666504,4064.487061,4084.743652,0.000000,4.000000,,,,0.000000,4.000000,4.000000,4.000000,4.000000,4.000000,4.000000,4.000000,4.000000,4.000000,4.000000,4.000000,4.000000,4.000000,4.000000,100.000000,,,,,,,,,,,,,,,,,,,,,,,,,,,,,,,,,,,,,,,,,,,,,,,,,,,,,,,,,,,,,,,,,,,,,,,,,,,,,,,,,,
1607716084.581071,36.000000,0.000000,4042.564209,4070.128174,4087.564209,4125.897461,4153.205078,4147.820313,4130.641113,4128.333496,4160.384766,4136.666504,4125.769043,4099.358887,4044.871826,4072.692383,0.000000,4.000000,,,,0.000000,4.000000,4.000000,4.000000,4.000000,4.000000,4.000000,4.000000,4.000000,4.000000,4.000000,4.000000,4.000000,4.000000,4.000000,100.000000,9.000000,0.000000,0.666545,-0.158569,-0.726746,0.049133,1.001480,-0.251957,-0.112306,-31.403067,-164.043640,-11.663997,,,,,,,,,,,,,,,,,,,,,,,,,,,,,,,,,,,,,,,,,,,,,,,,,,,,,,,,,,,,,,,,,,,,,,
1607716084.588867,37.000000,0.000000,4037.948730,4060.641113,4090.000000,4117.948730,4152.307617,4142.307617,4143.846191,4129.743652,4154.102539,4136.794922,4107.692383,4098.589844,4037.692383,4070.641113,0.000000,4.000000,,,,0.000000,4.000000,4.000000,4.000000,4.000000,4.000000,4.000000,4.000000,4.000000,4.000000,4.000000,4.000000,4.000000,4.000000,4.000000,100.000000,,,,,,,,,,,,,,,,,,,,,,,,,,,,,,,,,,,,,,,,,,,,,,,,,,,,,,,,,,,,,,,,,,,,,,,,,,,,,,,,,,
1607716084.596664,38.000000,0.000000,4069.230713,4092.948730,4117.051270,4135.384766,4164.743652,4158.846191,4172.436035,4157.692383,4168.717773,4171.282227,4135.128418,4118.077148,4076.025635,4095.897461,0.000000,4.000000,,,,0.000000,4.000000,4.000000,4.000000,4.000000,4.000000,4.000000,4.000000,4.000000,4.000000,4.000000,4.000000,4.000000,4.000000,4.000000,100.000000,,,,,,,,,,,,,,,,,,,,,,,,,,,,,,,,,,,,,,,,,,,,,,,,,,,,,,,,,,,,,,,,,,,,,,,,,,,,,,,,,,
1607716084.604461,39.000000,0.000000,4084.230713,4112.948730,4127.820313,4142.051270,4176.410156,4167.563965,4172.563965,4177.179688,4181.410156,4192.563965,4159.743652,4127.820313,4098.205078,4110.897461,0.000000,4.000000,,,,0.000000,4.000000,4.000000,4.000000,4.000000,4.000000,4.000000,4.000000,4.000000,4.000000,4.000000,4.000000,4.000000,4.000000,4.000000,100.000000,,,,,,,,,,,,,,,,,,,,,,,,,,,,,,,,,,,,,,,,,,,,,,,,,,,,,,,,,,,,,,,,,,,,,,,,,,,,,,,,,,
1607716084.612160,40.000000,0.000000,4069.487061,4097.307617,4122.692383,4128.333496,4174.358887,4154.743652,4153.846191,4170.512695,4182.307617,4177.563965,4149.230957,4124.871582,4084.615479,4107.820313,0.000000,4.000000,,,,0.000000,4.000000,4.000000,4.000000,4.000000,4.000000,4.000000,4.000000,4.000000,4.000000,4.000000,4.000000,4.000000,4.000000,4.000000,100.000000,10.000000,0.000000,0.667000,-0.157227,-0.726746,0.047241,0.969741,-0.293462,-0.101564,-32.001221,-164.193176,-11.364920,,,,,,,,,,,,,,,,,,,,,,,,,,,,,,,,,,,,,,,,,,,,,,,,,,,,,,,,,,,,,,,,,,,,,,
1607716084.619960,41.000000,0.000000,4058.846191,4086.538574,4117.948730,4114.743652,4172.820313,4149.230957,4147.307617,4151.025879,4175.384766,4168.077148,4133.846191,4121.538574,4070.769287,4100.256348,0.000000,4.000000,,,,0.000000,4.000000,4.000000,4.000000,4.000000,4.000000,4.000000,4.000000,4.000000,4.000000,4.000000,4.000000,4.000000,4.000000,4.000000,100.000000,,,,,,,,,,,,,,,,,,,,,,,,,,,,,,,,,,,,,,,,,,,,,,,,,,,,,,,,,,,,,,,,,,,,,,,,,,,,,,,,,,
1607716084.627759,42.000000,0.000000,4052.051270,4081.666748,4104.102539,4112.436035,4173.846191,4153.717773,4145.128418,4136.410156,4165.897461,4156.410156,4127.051270,4111.922852,4060.000000,4085.128174,0.000000,4.000000,,,,0.000000,4.000000,4.000000,4.000000,4.000000,4.000000,4.000000,4.000000,4.000000,4.000000,4.000000,4.000000,4.000000,4.000000,4.000000,100.000000,,,,,,,,,,,,,,,,,,,,,,,,,,,,,,,,,,,,,,,,,,,,,,,,,,,,,,,,,,,,,,,,,,,,,,,,,,,,,,,,,,
1607716084.635559,43.000000,0.000000,4048.076904,4077.307617,4092.692383,4114.743652,4169.102539,4157.436035,4143.461426,4147.051270,4168.077148,4140.512695,4124.487305,4102.948730,4056.794922,4075.897461,0.000000,4.000000,,,,0.000000,4.000000,4.000000,4.000000,4.000000,4.000000,4.000000,4.000000,4.000000,4.000000,4.000000,4.000000,4.000000,4.000000,4.000000,100.000000,,,,,,,,,,,,,,,,,,,,,,,,,,,,,,,,,,,,,,,,,,,,,,,,,,,,,,,,,,,,,,,,,,,,,,,,,,,,,,,,,,
1607716084.643358,44.000000,0.000000,4049.871826,4073.461426,4101.282227,4109.871582,4161.538574,4153.077148,4143.717773,4163.461426,4170.128418,4143.333496,4123.333496,4105.641113,4061.666748,4080.897461,0.000000,4.000000,,,,0.000000,4.000000,4.000000,4.000000,4.000000,4.000000,4.000000,4.000000,4.000000,4.000000,4.000000,4.000000,4.000000,4.000000,4.000000,100.000000,11.000000,0.000000,0.667351,-0.156982,-0.726563,0.045898,0.970718,-0.298344,-0.107424,-33.945221,-164.342712,-12.710765,,,,,,,,,,,,,,,,,,,,,,,,,,,,,,,,,,,,,,,,,,,,,,,,,,,,,,,,,,,,,,,,,,,,,,
1607716084.651157,45.000000,0.000000,4047.051270,4067.051270,4107.563965,4103.717773,4154.615234,4134.871582,4136.025879,4159.230957,4158.846191,4144.487305,4117.948730,4107.563965,4054.743652,4079.871826,0.000000,4.000000,,,,0.000000,4.000000,4.000000,4.000000,4.000000,4.000000,4.000000,4.000000,4.000000,4.000000,4.000000,4.000000,4.000000,4.000000,4.000000,100.000000,,,,,,,,,,,,,,,,,,,,,,,,,,,,,,,,,,,,,,,,,,,,,,,,,,,,,,,,,,,,,,,,,,,,,,,,,,,,,,,,,,
1607716084.658957,46.000000,0.000000,4049.358887,4073.974365,4101.666504,4117.948730,4153.333496,4137.820313,4134.102539,4153.333496,4152.307617,4135.897461,4119.358887,4104.743652,4049.615479,4075.897461,0.000000,4.000000,,,,0.000000,4.000000,4.000000,4.000000,4.000000,4.000000,4.000000,4.000000,4.000000,4.000000,4.000000,4.000000,4.000000,4.000000,4.000000,100.000000,,,,,,,,,,,,,,,,,,,,,,,,,,,,,,,,,,,,,,,,,,,,,,,,,,,,,,,,,,,,,,,,,,,,,,,,,,,,,,,,,,
1607716084.666756,47.000000,0.000000,4062.820557,4092.307617,4106.538574,4140.128418,4154.358887,4157.436035,4137.692383,4149.615234,4147.179688,4133.205078,4127.692383,4107.692383,4058.974365,4085.641113,0.000000,4.000000,,,,0.000000,4.000000,4.000000,4.000000,4.000000,4.000000,4.000000,4.000000,4.000000,4.000000,4.000000,4.000000,4.000000,4.000000,4.000000,100.000000,,,,,,,,,,,,,3.609841,1.090019,1.528742,0.799003,0.302057,18.671644,3.064828,1.794623,0.786476,0.343755,1.572238,0.948313,0.904663,0.496947,0.336695,4.464529,0.880253,0.996795,0.677322,0.729914,2.029916,0.744457,0.276657,0.426288,0.351936,0.834796,0.471694,0.656777,0.741028,0.766882,1.537276,0.461035,0.778609,0.351555,0.378880,0.959718,1.802520,1.598698,0.484782,0.371787,1.123292,0.804300,0.583894,0.514148,0.228411,5.810588,1.787593,0.624170,0.935950,0.444571,11.055529,2.076522,1.241690,1.015635,0.527578,2.425148,1.276634,0.908133,0.443012,0.282925,43.260426,9.109681,1.736601,1.266447,0.456014,3.448945,1.312060,1.124783,0.814959,0.362341
1607716084.674556,48.000000,0.000000,4072.948730,4095.897461,4120.000000,4139.487305,4151.922852,4146.153809,4134.102539,4140.000000,4146.666504,4139.102539,4128.846191,4117.436035,4071.410156,4097.948730,0.000000,4.000000,,,,0.000000,4.000000,4.000000,4.000000,4.000000,4.000000,4.000000,4.000000,4.000000,4.000000,4.000000,4.000000,4.000000,4.000000,4.000000,100.000000,12.000000,0.000000,0.667584,-0.157349,-0.726318,0.045105,0.959976,-0.284672,-0.103517,-32.599373,-164.342712,-12.710765,,,,,,,,,,,,,,,,,,,,,,,,,,,,,,,,,,,,,,,,,,,,,,,,,,,,,,,,,,,,,,,,,,,,,,
1607716084.682355,49.000000,0.000000,4076.538574,4086.281982,4131.538574,4133.717773,4158.846191,4137.051270,4143.589844,4150.128418,4165.769043,4158.717773,4137.692383,4133.461426,4082.692383,4107.307617,0.000000,4.000000,,,,0.000000,4.000000,4.000000,4.000000,4.000000,4.000000,4.000000,4.000000,4.000000,4.000000,4.000000,4.000000,4.000000,4.000000,4.000000,100.000000,,,,,,,,,,,,,,,,,,,,,,,,,,,,,,,,,,,,,,,,,,,,,,,,,,,,,,,,,,,,,,,,,,,,,,,,,,,,,,,,,,
1607716084.690054,50.000000,0.000000,4082.435791,4089.230713,4141.410156,4141.025879,4173.077148,4158.333496,4161.410156,4174.743652,4175.256348,4172.948730,4152.436035,4144.743652,4084.487061,4118.205078,0.000000,4.000000,,,,0.000000,4.000000,4.000000,4.000000,4.000000,4.000000,4.000000,4.000000,4.000000,4.000000,4.000000,4.000000,4.000000,4.000000,4.000000,100.000000,,,,,,,,,,,,,,,,,,,,,,,,,,,,,,,,,,,,,,,,,,,,,,,,,,,,,,,,,,,,,,,,,,,,,,,,,,,,,,,,,,
1607716084.697853,51.000000,0.000000,4086.281982,4102.563965,4142.307617,4145.512695,4173.333496,4163.205078,4160.769043,4170.384766,4159.487305,4160.000000,4146.922852,4138.589844,4078.076904,4120.128418,0.000000,4.000000,,,,0.000000,4.000000,4.000000,4.000000,4.000000,4.000000,4.000000,4.000000,4.000000,4.000000,4.000000,4.000000,4.000000,4.000000,4.000000,100.000000,,,,,,,,,,,,,,,,,,,,,,,,,,,,,,,,,,,,,,,,,,,,,,,,,,,,,,,,,,,,,,,,,,,,,,,,,,,,,,,,,,
1607716084.705653,52.000000,0.000000,4082.051270,4111.922852,4131.025879,4142.820313,4163.461426,4145.641113,4147.051270,4146.025879,4151.282227,4149.487305,4132.179688,4126.025879,4083.333252,4111.666504,0.000000,4.000000,,,,0.000000,4.000000,4.000000,4.000000,4.000000,4.000000,4.000000,4.000000,4.000000,4.000000,4.000000,4.000000,4.000000,4.000000,4.000000,100.000000,13.000000,0.000000,0.668352,-0.159851,-0.725220,0.042542,0.964370,-0.314458,-0.102541,-31.851683,-164.342712,-11.963073,,,,,,,,,,,,,,,,,,,,,,,,,,,,,,,,,,,,,,,,,,,,,,,,,,,,,,,,,,,,,,,,,,,,,,
1607716084.713452,53.000000,0.000000,4077.435791,4109.102539,4120.897461,4138.974121,4160.128418,4142.820313,4141.922852,4137.563965,4151.538574,4148.717773,4126.153809,4121.410156,4087.564209,4106.025879,0.000000,4.000000,,,,0.000000,4.000000,4.000000,4.000000,4.000000,4.000000,4.000000,4.000000,4.000000,4.000000,4.000000,4.000000,4.000000,4.000000,4.000000,100.000000,,,,,,,,,,,,,,,,,,,,,,,,,,,,,,,,,,,,,,,,,,,,,,,,,,,,,,,,,,,,,,,,,,,,,,,,,,,,,,,,,,
1607716084.721251,54.000000,0.000000,4078.461426,4103.333496,4123.333496,4136.282227,4159.102539,4145.769043,4147.436035,4141.538574,4146.922852,4138.205078,4126.282227,4123.077148,4078.333252,4108.974121,0.000000,4.000000,,,,0.000000,4.000000,4.000000,4.000000,4.000000,4.000000,4.000000,4.000000,4.000000,4.000000,4.000000,4.000000,4.000000,4.000000,4.000000,100.000000,,,,,,,,,,,,,,,,,,,,,,,,,,,,,,,,,,,,,,,,,,,,,,,,,,,,,,,,,,,,,,,,,,,,,,,,,,,,,,,,,,
1607716084.729050,55.000000,0.000000,4078.461426,4104.743652,4124.230957,4138.077148,4157.051270,4153.974121,4155.128418,4140.256348,4148.974121,4135.128418,4125.512695,4120.512695,4073.974365,4105.641113,0.000000,4.000000,,,,0.000000,4.000000,4.000000,4.000000,4.000000,4.000000,4.000000,4.000000,4.000000,4.000000,4.000000,4.000000,4.000000,4.000000,4.000000,100.000000,,,,,,,,,,,,,,,,,,,,,,,,,,,,,,,,,,,,,,,,,,,,,,,,,,,,,,,,,,,,,,,,,,,,,,,,,,,,,,,,,,
1607716084.736849,56.000000,0.000000,4073.333252,4106.666504,4119.102539,4137.179688,4163.077148,4178.205078,4160.512695,4140.128418,4152.436035,4140.512695,4123.077148,4119.358887,4074.230713,4096.153809,0.000000,4.000000,,,,0.000000,4.000000,4.000000,4.000000,4.000000,4.000000,4.000000,4.000000,4.000000,4.000000,4.000000,4.000000,4.000000,4.000000,4.000000,100.000000,14.000000,0.000000,0.669450,-0.164124,-0.723450,0.039001,0.975601,-0.310552,-0.071778,-32.898453,-164.641800,-11.364920,,,,,,,,,,,,,,,,,,,,,,,,,,,,,,,,,,,,,,,,,,,,,,,,,,,,,,,,,,,,,,,,,,,,,,
1607716084.744648,57.000000,0.000000,4073.846191,4103.589844,4120.769043,4122.948730,4166.538574,4174.487305,4158.077148,4148.846191,4149.487305,4134.615234,4122.692383,4122.436035,4072.692383,4099.358887,0.000000,4.000000,,,,0.000000,4.000000,4.000000,4.000000,4.000000,4.000000,4.000000,4.000000,4.000000,4.000000,4.000000,4.000000,4.000000,4.000000,4.000000,100.000000,,,,,,,,,,,,,,,,,,,,,,,,,,,,,,,,,,,,,,,,,,,,,,,,,,,,,,,,,,,,,,,,,,,,,,,,,,,,,,,,,,
1607716084.752447,58.000000,0.000000,4077.179443,4095.897461,4124.871582,4117.179688,4158.205078,4138.974121,4150.769043,4150.384766,4152.051270,4132.820313,4121.666504,4119.230957,4071.666748,4103.461426,0.000000,4.000000,,,,0.000000,4.000000,4.000000,4.000000,4.000000,4.000000,4.000000,4.000000,4.000000,4.000000,4.000000,4.000000,4.000000,4.000000,4.000000,100.000000,,,,,,,,,,,,,,,,,,,,,,,,,,,,,,,,,,,,,,,,,,,,,,,,,,,,,,,,,,,,,,,,,,,,,,,,,,,,,,,,,,
1607716084.760247,59.000000,0.000000,4073.846191,4090.128174,4117.820313,4124.615234,4151.025879,4133.589844,4141.538574,4136.922852,4153.974121,4148.205078,4114.102539,4109.487305,4067.820557,4095.000000,0.000000,4.000000,,,,0.000000,4.000000,4.000000,4.000000,4.000000,4.000000,4.000000,4.000000,4.000000,4.000000,4.000000,4.000000,4.000000,4.000000,4.000000,100.000000,,,,,,,,,,,,,,,,,,,,,,,,,,,,,,,,,,,,,,,,,,,,,,,,,,,,,,,,,,,,,,,,,,,,,,,,,,,,,,,,,,
1607716084.767945,60.000000,0.000000,4072.820557,4094.487061,4110.641113,4122.692383,4151.922852,4143.846191,4131.666504,4129.743652,4149.102539,4157.051270,4110.769043,4105.128418,4068.718018,4088.205078,0.000000,4.000000,,,,0.000000,4.000000,4.000000,4.000000,4.000000,4.000000,4.000000,4.000000,4.000000,4.000000,4.000000,4.000000,4.000000,4.000000,4.000000,100.000000,15.000000,0.000000,0.670364,-0.167542,-0.721985,0.035767,0.994644,-0.307622,-0.081056,-32.300297,-163.595032,-12.411689,,,,,,,,,,,,,,,,,,,,,,,,,,,,,,,,,,,,,,,,,,,,,,,,,,,,,,,,,,,,,,,,,,,,,,
1607716084.775744,61.000000,0.000000,4076.538574,4103.717773,4117.820313,4122.179688,4152.563965,4132.051270,4130.128418,4135.769043,4147.179688,4152.307617,4115.512695,4115.512695,4075.128174,4096.666504,0.000000,4.000000,,,,0.000000,4.000000,4.000000,4.000000,4.000000,4.000000,4.000000,4.000000,4.000000,4.000000,4.000000,4.000000,4.000000,4.000000,4.000000,100.000000,,,,,,,,,,,,,,,,,,,,,,,,,,,,,,,,,,,,,,,,,,,,,,,,,,,,,,,,,,,,,,,,,,,,,,,,,,,,,,,,,,
1607716084.783542,62.000000,0.000000,4077.307617,4109.102539,4124.871582,4132.563965,4147.948730,4130.512695,4137.307617,4141.282227,4144.743652,4152.436035,4116.794922,4124.871582,4077.692383,4105.897461,0.000000,4.000000,,,,0.000000,4.000000,4.000000,4.000000,4.000000,4.000000,4.000000,4.000000,4.000000,4.000000,4.000000,4.000000,4.000000,4.000000,4.000000,100.000000,,,,,,,,,,,,,,,,,,,,,,,,,,,,,,,,,,,,,,,,,,,,,,,,,,,,,,,,,,,,,,,,,,,,,,,,,,,,,,,,,,
1607716084.791340,63.000000,0.000000,4073.461426,4103.333496,4117.179688,4127.563965,4140.641113,4138.077148,4138.333496,4143.589844,4141.025879,4155.000000,4118.333496,4118.717773,4074.358887,4102.563965,0.000000,4.000000,,,,0.000000,4.000000,4.000000,4.000000,4.000000,4.000000,4.000000,4.000000,4.000000,4.000000,4.000000,4.000000,4.000000,4.000000,4.000000,100.000000,,,,,,,,,,,,,4.640984,1.171491,1.573403,0.807656,0.333567,17.957899,3.430342,1.833320,0.851470,0.355820,2.280049,1.019065,0.774588,0.570506,0.344202,4.465315,1.061786,0.782336,0.699830,0.738948,2.057628,0.850795,0.224225,0.458892,0.340265,1.216328,0.575855,0.701589,0.790149,0.754840,1.855884,0.593051,0.806397,0.362036,0.385963,1.065002,2.079157,1.638208,0.508295,0.361774,0.916415,0.831209,0.465969,0.491307,0.211108,5.317382,1.568507,0.548706,0.990428,0.441815,10.337379,1.993504,1.185889,1.063698,0.507540,2.703329,1.417936,0.815392,0.494811,0.276740,41.202374,8.438187,1.650541,1.297214,0.421400,3.913461,1.529631,1.012666,0.879509,0.349772
1607716084.799139,64.000000,0.000000,4073.461426,4099.102539,4109.358887,4119.102539,4144.102539,4140.641113,4140.641113,4151.282227,4145.256348,4147.563965,4126.410156,4114.358887,4077.948730,4102.307617,3408.000000,4.000000,,,,0.000000,4.000000,4.000000,4.000000,4.000000,4.000000,4.000000,4.000000,4.000000,4.000000,4.000000,4.000000,4.000000,4.000000,4.000000,100.000000,16.000000,0.000000,0.670910,-0.169434,-0.721130,0.033813,0.988296,-0.307134,-0.062501,-32.449837,-163.445480,-12.262150,,,,,,,,,,,,,,,,,,,,,,,,,,,,,,,,,,,,,,,,,,,,,,,,,,,,,,,,,,,,,,,,,,,,,,
1607716084.806937,65.000000,0.000000,4075.641113,4104.743652,4110.000000,4128.846191,4155.000000,4151.025879,4153.974121,4159.230957,4149.358887,4140.512695,4124.615234,4115.256348,4079.487061,4103.846191,3265.000000,4.000000,,,,0.000000,4.000000,4.000000,4.000000,4.000000,4.000000,4.000000,4.000000,4.000000,4.000000,4.000000,4.000000,4.000000,4.000000,4.000000,100.000000,,,,,,,,,,,,,,,,,,,,,,,,,,,,,,,,,,,,,,,,,,,,,,,,,,,,,,,,,,,,,,,,,,,,,,,,,,,,,,,,,,
1607716084.814736,66.000000,0.000000,4075.256348,4099.487305,4108.717773,4128.717773,4153.717773,4143.589844,4151.153809,4152.051270,4143.461426,4142.692383,4106.153809,4109.743652,4068.974365,4096.666504,3611.000000,4.000000,,,,0.000000,4.000000,4.000000,4.000000,4.000000,4.000000,4.000000,4.000000,4.000000,4.000000,4.000000,4.000000,4.000000,4.000000,4.000000,100.000000,,,,,,,,,,,,,,,,,,,,,,,,,,,,,,,,,,,,,,,,,,,,,,,,,,,,,,,,,,,,,,,,,,,,,,,,,,,,,,,,,,
1607716084.822534,67.000000,0.000000,4073.846191,4086.538574,4104.615234,4116.538574,4149.615234,4130.256348,4134.871582,4136.922852,4137.820313,4140.769043,4095.000000,4105.256348,4066.281982,4087.564209,3612.000000,4.000000,,,,0.000000,4.000000,4.000000,4.000000,4.000000,4.000000,4.000000,4.000000,4.000000,4.000000,4.000000,4.000000,4.000000,4.000000,4.000000,100.000000,,,,,,,,,,,,,,,,,,,,,,,,,,,,,,,,,,,,,,,,,,,,,,,,,,,,,,,,,,,,,,,,,,,,,,,,,,,,,,,,,,
1607716084.830234,68.000000,0.000000,4073.974365,4096.538574,4103.589844,4119.230957,4151.666504,4146.922852,4140.769043,4134.871582,4142.436035,4136.153809,4101.794922,4108.333496,4073.461426,4090.128174,3441.000000,4.000000,,,,0.000000,4.000000,4.000000,4.000000,4.000000,4.000000,4.000000,4.000000,4.000000,4.000000,4.000000,4.000000,4.000000,4.000000,4.000000,100.000000,17.000000,0.000000,0.671228,-0.169983,-0.720764,0.032532,0.959487,-0.271977,-0.066407,-34.094757,-164.641800,-12.561227,,,,,,,,,,,,,,,,,,,,,,,,,,,,,,,,,,,,,,,,,,,,,,,,,,,,,,,,,,,,,,,,,,,,,,
1607716084.838033,69.000000,0.000000,4081.410156,4110.641113,4104.102539,4127.307617,4146.410156,4152.307617,4151.153809,4142.179688,4146.538574,4140.769043,4108.717773,4109.230957,4073.589844,4098.333496,3511.000000,4.000000,,,,0.000000,4.000000,4.000000,4.000000,4.000000,4.000000,4.000000,4.000000,4.000000,4.000000,4.000000,4.000000,4.000000,4.000000,4.000000,100.000000,,,,,,,,,,,,,,,,,,,,,,,,,,,,,,,,,,,,,,,,,,,,,,,,,,,,,,,,,,,,,,,,,,,,,,,,,,,,,,,,,,
1607716084.845832,70.000000,0.000000,4093.076904,4109.358887,4115.641113,4128.461426,4150.512695,4146.282227,4155.769043,4155.256348,4153.717773,4150.512695,4113.717773,4118.589844,4073.718018,4106.410156,3446.000000,4.000000,,,,0.000000,4.000000,4.000000,4.000000,4.000000,4.000000,4.000000,4.000000,4.000000,4.000000,4.000000,4.000000,4.000000,4.000000,4.000000,100.000000,,,,,,,,,,,,,,,,,,,,,,,,,,,,,,,,,,,,,,,,,,,,,,,,,,,,,,,,,,,,,,,,,,,,,,,,,,,,,,,,,,
1607716084.853632,71.000000,0.000000,4093.076904,4106.794922,4128.589844,4122.948730,4160.641113,4156.410156,4161.282227,4161.025879,4160.512695,4156.538574,4121.666504,4132.307617,4077.307617,4111.153809,3545.000000,4.000000,,,,0.000000,4.000000,4.000000,4.000000,4.000000,4.000000,4.000000,4.000000,4.000000,4.000000,4.000000,4.000000,4.000000,4.000000,4.000000,100.000000,,,,,,,,,,,,,,,,,,,,,,,,,,,,,,,,,,,,,,,,,,,,,,,,,,,,,,,,,,,,,,,,,,,,,,,,,,,,,,,,,,
1607716084.861431,72.000000,0.000000,4085.512939,4109.358887,4121.922852,4117.179688,4151.794922,4154.871582,4155.641113,4143.461426,4149.102539,4153.077148,4125.769043,4126.282227,4076.025635,4106.410156,2940.000000,4.000000,,,,0.000000,4.000000,4.000000,4.000000,4.000000,4.000000,4.000000,4.000000,4.000000,4.000000,4.000000,4.000000,4.000000,4.000000,4.000000,100.000000,18.000000,0.000000,0.671334,-0.169373,-0.720825,0.032166,0.979995,-0.279789,-0.091798,-31.851683,-162.847336,-12.411689,,,,,,,,,,,,,,,,,,,,,,,,,,,,,,,,,,,,,,,,,,,,,,,,,,,,,,,,,,,,,,,,,,,,,,
1607716084.869231,73.000000,0.000000,4091.025635,4111.153809,4115.769043,4127.436035,4146.410156,4148.717773,4146.666504,4128.974121,4134.358887,4143.205078,4120.512695,4118.333496,4081.281982,4106.794922,3354.000000,4.000000,,,,0.000000,4.000000,4.000000,4.000000,4.000000,4.000000,4.000000,4.000000,4.000000,4.000000,4.000000,4.000000,4.000000,4.000000,4.000000,100.000000,,,,,,,,,,,,,,,,,,,,,,,,,,,,,,,,,,,,,,,,,,,,,,,,,,,,,,,,,,,,,,,,,,,,,,,,,,,,,,,,,,
1607716084.877030,74.000000,0.000000,4091.538574,4110.128418,4123.077148,4129.743652,4149.615234,4145.769043,4144.358887,4135.641113,4134.230957,4138.077148,4107.948730,4123.333496,4082.179443,4108.589844,3529.000000,4.000000,,,,0.000000,4.000000,4.000000,4.000000,4.000000,4.000000,4.000000,4.000000,4.000000,4.000000,4.000000,4.000000,4.000000,4.000000,4.000000,100.000000,,,,,,,,,,,,,,,,,,,,,,,,,,,,,,,,,,,,,,,,,,,,,,,,,,,,,,,,,,,,,,,,,,,,,,,,,,,,,,,,,,
1607716084.884829,75.000000,0.000000,4075.769287,4106.153809,4123.974121,4107.179688,4140.641113,4122.563965,4139.615234,4138.974121,4142.436035,4139.230957,4100.256348,4125.000000,4069.230713,4099.358887,3410.000000,4.000000,,,,0.000000,4.000000,4.000000,4.000000,4.000000,4.000000,4.000000,4.000000,4.000000,4.000000,4.000000,4.000000,4.000000,4.000000,4.000000,100.000000,,,,,,,,,,,,,,,,,,,,,,,,,,,,,,,,,,,,,,,,,,,,,,,,,,,,,,,,,,,,,,,,,,,,,,,,,,,,,,,,,,
1607716084.892629,76.000000,0.000000,4076.410156,4101.794922,4120.000000,4104.615234,4134.487305,4114.358887,4132.948730,4140.128418,4148.461426,4133.333496,4100.384766,4121.922852,4065.256348,4097.179688,3511.000000,4.000000,,,,0.000000,4.000000,4.000000,4.000000,4.000000,4.000000,4.000000,4.000000,4.000000,4.000000,4.000000,4.000000,4.000000,4.000000,4.000000,100.000000,19.000000,0.000000,0.671340,-0.167053,-0.721375,0.031860,0.960464,-0.256840,-0.089845,-32.001221,-163.445480,-11.364920,,,,,,,,,,,,,,,,,,,,,,,,,,,,,,,,,,,,,,,,,,,,,,,,,,,,,,,,,,,,,,,,,,,,,,
1607716084.900328,77.000000,0.000000,4095.512939,4111.666504,4123.974121,4128.077148,4142.436035,4148.846191,4138.974121,4156.025879,4151.922852,4134.230957,4110.384766,4123.461426,4073.333252,4106.410156,3020.000000,4.000000,,,,0.000000,4.000000,4.000000,4.000000,4.000000,4.000000,4.000000,4.000000,4.000000,4.000000,4.000000,4.000000,4.000000,4.000000,4.000000,100.000000,,,,,,,,,,,,,,,,,,,,,,,,,,,,,,,,,,,,,,,,,,,,,,,,,,,,,,,,,,,,,,,,,,,,,,,,,,,,,,,,,,
1607716084.908127,78.000000,0.000000,4103.077148,4125.000000,4125.897461,4131.666504,4144.743652,4158.461426,4144.743652,4163.717773,4154.743652,4154.743652,4121.282227,4125.897461,4084.615479,4109.615234,3529.000000,4.000000,,,,0.000000,4.000000,4.000000,4.000000,4.000000,4.000000,4.000000,4.000000,4.000000,4.000000,4.000000,4.000000,4.000000,4.000000,4.000000,100.000000,,,,,,,,,,,,,,,,,,,,,,,,,,,,,,,,,,,,,,,,,,,,,,,,,,,,,,,,,,,,,,,,,,,,,,,,,,,,,,,,,,
1607716084.915926,79.000000,0.000000,4090.897461,4114.358887,4121.794922,4113.461426,4140.897461,4136.410156,4142.307617,4146.794922,4151.794922,4154.230957,4117.051270,4125.512695,4086.666748,4105.128418,3410.000000,4.000000,,,,0.000000,4.000000,4.000000,4.000000,4.000000,4.000000,4.000000,4.000000,4.000000,4.000000,4.000000,4.000000,4.000000,4.000000,4.000000,100.000000,,,,,,,,,,,,,6.269123,1.445575,1.541770,0.783288,0.365775,15.592954,3.762634,1.765231,0.863741,0.383025,3.611908,1.216756,0.667849,0.652627,0.349213,4.111045,1.403728,0.606646,0.676985,0.722080,1.892681,0.939515,0.197276,0.486844,0.332725,1.621212,0.680320,0.776605,0.817912,0.758496,2.182159,0.803208,0.768991,0.396775,0.391415,1.350150,2.447869,1.556962,0.581124,0.356689,0.805124,0.951823,0.345860,0.476560,0.201610,4.397570,1.391582,0.569572,1.040970,0.446090,8.861901,1.938786,1.168651,1.128302,0.483672,3.408854,1.580385,0.721439,0.557259,0.271139,35.376633,7.039271,1.577566,1.258590,0.409079,4.866864,1.878777,0.916937,0.924273,0.340920
1607716084.923725,80.000000,0.000000,4080.769287,4095.512939,4122.179688,4114.615234,4139.487305,4138.205078,4140.897461,4142.436035,4152.948730,4138.333496,4105.897461,4126.538574,4072.820557,4102.307617,3511.000000,4.000000,,,,0.000000,4.000000,4.000000,4.000000,4.000000,4.000000,4.000000,4.000000,4.000000,4.000000,4.000000,4.000000,4.000000,4.000000,4.000000,100.000000,20.000000,0.000000,0.671272,-0.163879,-0.722168,0.031799,0.998062,-0.280766,-0.098146,-33.047989,-164.043640,-11.663997,,,,,,,,,,,,,,,,,,,,,,,,,,,,,,,,,,,,,,,,,,,,,,,,,,,,,,,,,,,,,,,,,,,,,,
1607716084.931525,81.000000,0.000000,4086.153809,4110.641113,4124.358887,4122.436035,4133.461426,4135.128418,4126.794922,4147.692383,4157.820313,4152.948730,4107.051270,4128.974121,4073.205078,4103.333496,3020.000000,4.000000,,,,0.000000,4.000000,4.000000,4.000000,4.000000,4.000000,4.000000,4.000000,4.000000,4.000000,4.000000,4.000000,4.000000,4.000000,4.000000,100.000000,,,,,,,,,,,,,,,,,,,,,,,,,,,,,,,,,,,,,,,,,,,,,,,,,,,,,,,,,,,,,,,,,,,,,,,,,,,,,,,,,,
1607716084.939324,82.000000,0.000000,4085.128174,4123.077148,4118.333496,4118.333496,4131.794922,4117.563965,4114.358887,4138.333496,4148.974121,4160.897461,4112.051270,4123.717773,4082.435791,4103.333496,3529.000000,4.000000,,,,0.000000,4.000000,4.000000,4.000000,4.000000,4.000000,4.000000,4.000000,4.000000,4.000000,4.000000,4.000000,4.000000,4.000000,4.000000,100.000000,,,,,,,,,,,,,,,,,,,,,,,,,,,,,,,,,,,,,,,,,,,,,,,,,,,,,,,,,,,,,,,,,,,,,,,,,,,,,,,,,,
1607716084.947123,83.000000,0.000000,4072.179443,4102.692383,4107.563965,4124.358887,4133.333496,4133.589844,4126.794922,4138.333496,4139.230957,4137.179688,4103.205078,4115.000000,4064.102539,4097.563965,3410.000000,4.000000,,,,0.000000,4.000000,4.000000,4.000000,4.000000,4.000000,4.000000,4.000000,4.000000,4.000000,4.000000,4.000000,4.000000,4.000000,4.000000,100.000000,,,,,,,,,,,,,,,,,,,,,,,,,,,,,,,,,,,,,,,,,,,,,,,,,,,,,,,,,,,,,,,,,,,,,,,,,,,,,,,,,,
1607716084.954922,84.000000,0.000000,4077.820557,4100.000000,4116.410156,4132.051270,4137.179688,4162.563965,4140.769043,4161.025879,4153.461426,4147.563965,4100.512695,4125.769043,4066.281982,4105.512695,3511.000000,4.000000,,,,0.000000,4.000000,4.000000,4.000000,4.000000,4.000000,4.000000,4.000000,4.000000,4.000000,4.000000,4.000000,4.000000,4.000000,4.000000,100.000000,21.000000,0.000000,0.671070,-0.159485,-0.723328,0.032043,1.001480,-0.286625,-0.102052,-33.945221,-162.548264,-11.215381,,,,,,,,,,,,,,,,,,,,,,,,,,,,,,,,,,,,,,,,,,,,,,,,,,,,,,,,,,,,,,,,,,,,,,
1607716084.962622,85.000000,0.000000,4101.794922,4118.846191,4133.717773,4113.077148,4140.769043,4147.692383,4126.666504,4156.666504,4156.153809,4162.307617,4113.589844,4142.948730,4106.794922,4127.692383,3020.000000,4.000000,,,,0.000000,4.000000,4.000000,4.000000,4.000000,4.000000,4.000000,4.000000,4.000000,4.000000,4.000000,4.000000,4.000000,4.000000,4.000000,100.000000,,,,,,,,,,,,,,,,,,,,,,,,,,,,,,,,,,,,,,,,,,,,,,,,,,,,,,,,,,,,,,,,,,,,,,,,,,,,,,,,,,
1607716084.970422,86.000000,0.000000,4126.025879,4137.948730,4133.717773,4104.230957,4133.974121,4126.922852,4111.153809,4118.333496,4126.282227,4120.000000,4124.615234,4143.205078,4128.846191,4142.307617,3529.000000,4.000000,,,,0.000000,4.000000,4.000000,4.000000,4.000000,4.000000,4.000000,4.000000,4.000000,4.000000,4.000000,4.000000,4.000000,4.000000,4.000000,100.000000,,,,,,,,,,,,,,,,,,,,,,,,,,,,,,,,,,,,,,,,,,,,,,,,,,,,,,,,,,,,,,,,,,,,,,,,,,,,,,,,,,
1607716084.978222,87.000000,0.000000,4176.666504,4185.256348,4152.307617,4147.820313,4135.641113,4141.538574,4129.743652,4123.717773,4127.563965,4112.692383,4146.794922,4152.307617,4162.307617,4170.128418,3410.000000,4.000000,,,,0.000000,4.000000,4.000000,4.000000,4.000000,4.000000,4.000000,4.000000,4.000000,4.000000,4.000000,4.000000,4.000000,4.000000,4.000000,100.000000,,,,,,,,,,,,,,,,,,,,,,,,,,,,,,,,,,,,,,,,,,,,,,,,,,,,,,,,,,,,,,,,,,,,,,,,,,,,,,,,,,
1607716084.986022,88.000000,0.000000,4238.333496,4243.974121,4193.589844,4192.179688,4151.922852,4154.102539,4158.717773,4167.307617,4166.666504,4170.384766,4183.589844,4181.922852,4225.000000,4215.897461,3511.000000,4.000000,,,,0.000000,4.000000,4.000000,4.000000,4.000000,4.000000,4.000000,4.000000,4.000000,4.000000,4.000000,4.000000,4.000000,4.000000,4.000000,100.000000,22.000000,0.000000,0.670758,-0.155640,-0.724426,0.032654,0.987320,-0.283207,-0.114260,-32.300297,-164.043640,-12.411689,,,,,,,,,,,,,,,,,,,,,,,,,,,,,,,,,,,,,,,,,,,,,,,,,,,,,,,,,,,,,,,,,,,,,,
1607716084.993821,89.000000,0.000000,4249.102539,4253.846191,4204.871582,4192.948730,4160.000000,4151.922852,4171.666504,4174.615234,4173.846191,4184.871582,4194.102539,4196.794922,4245.384766,4230.641113,3020.000000,4.000000,,,,0.000000,4.000000,4.000000,4.000000,4.000000,4.000000,4.000000,4.000000,4.000000,4.000000,4.000000,4.000000,4.000000,4.000000,4.000000,100.000000,,,,,,,,,,,,,,,,,,,,,,,,,,,,,,,,,,,,,,,,,,,,,,,,,,,,,,,,,,,,,,,,,,,,,,,,,,,,,,,,,,
1607716085.001621,90.000000,0.000000,4223.717773,4233.717773,4185.128418,4182.820313,4156.153809,4153.974121,4166.282227,4157.051270,4153.333496,4152.948730,4166.666504,4184.358887,4217.563965,4207.436035,3529.000000,4.000000,,,,0.000000,4.000000,4.000000,4.000000,4.000000,4.000000,4.000000,4.000000,4.000000,4.000000,4.000000,4.000000,4.000000,4.000000,4.000000,100.000000,,,,,,,,,,,,,,,,,,,,,,,,,,,,,,,,,,,,,,,,,,,,,,,,,,,,,,,,,,,,,,,,,,,,,,,,,,,,,,,,,,
1607716085.009421,91.000000,0.000000,4206.794922,4226.153809,4174.871582,4174.487305,4156.025879,4159.487305,4159.487305,4158.077148,4149.487305,4144.743652,4151.410156,4171.025879,4195.512695,4189.615234,3410.000000,4.000000,,,,0.000000,4.000000,4.000000,4.000000,4.000000,4.000000,4.000000,4.000000,4.000000,4.000000,4.000000,4.000000,4.000000,4.000000,4.000000,100.000000,,,,,,,,,,,,,,,,,,,,,,,,,,,,,,,,,,,,,,,,,,,,,,,,,,,,,,,,,,,,,,,,,,,,,,,,,,,,,,,,,,
1607716085.017221,92.000000,0.000000,4197.179688,4219.230957,4174.615234,4160.384766,4154.487305,4157.307617,4164.102539,4167.820313,4156.153809,4144.871582,4157.692383,4173.717773,4185.769043,4185.000000,3511.000000,4.000000,,,,0.000000,4.000000,4.000000,4.000000,4.000000,4.000000,4.000000,4.000000,4.000000,4.000000,4.000000,4.000000,4.000000,4.000000,4.000000,100.000000,23.000000,0.000000,0.670448,-0.153931,-0.725037,0.033569,0.958999,-0.291997,-0.112795,-33.197529,-163.445480,-11.813535,,,,,,,,,,,,,,,,,,,,,,,,,,,,,,,,,,,,,,,,,,,,,,,,,,,,,,,,,,,,,,,,,,,,,,
1607716085.025021,93.000000,0.000000,4185.256348,4205.128418,4170.256348,4149.615234,4148.974121,4150.256348,4170.897461,4160.256348,4154.487305,4133.461426,4151.282227,4182.563965,4177.948730,4183.333496,3020.000000,4.000000,,,,0.000000,4.000000,4.000000,4.000000,4.000000,4.000000,4.000000,4.000000,4.000000,4.000000,4.000000,4.000000,4.000000,4.000000,4.000000,100.000000,,,,,,,,,,,,,,,,,,,,,,,,,,,,,,,,,,,,,,,,,,,,,,,,,,,,,,,,,,,,,,,,,,,,,,,,,,,,,,,,,,
1607716085.032821,94.000000,0.000000,4180.256348,4197.948730,4175.512695,4151.153809,4150.641113,4157.692383,4173.333496,4153.974121,4150.897461,4137.179688,4147.692383,4186.153809,4177.436035,4185.000000,3529.000000,4.000000,,,,0.000000,4.000000,4.000000,4.000000,4.000000,4.000000,4.000000,4.000000,4.000000,4.000000,4.000000,4.000000,4.000000,4.000000,4.000000,100.000000,,,,,,,,,,,,,,,,,,,,,,,,,,,,,,,,,,,,,,,,,,,,,,,,,,,,,,,,,,,,,,,,,,,,,,,,,,,,,,,,,,
