title:vishal nback trial 1, start timestamp:1606508274.389012, stop timestamp:1606508332.011227, headset type:EPOCPLUS, headset serial:4A2C14BBFA, headset firmware:634, channels:151, sampling rate:eeg_128;mot_32;pm_0.1;pow_8, samples:7393      , version:2.0
Timestamp,EEG.Counter,EEG.Interpolated,EEG.AF3,EEG.F7,EEG.F3,EEG.FC5,EEG.T7,EEG.P7,EEG.O1,EEG.O2,EEG.P8,EEG.T8,EEG.FC6,EEG.F4,EEG.F8,EEG.AF4,EEG.RawCq,EEG.Battery,MarkerIndex,MarkerType,MarkerValueInt,EEG.MarkerHardware,CQ.AF3,CQ.F7,CQ.F3,CQ.FC5,CQ.T7,CQ.P7,CQ.O1,CQ.O2,CQ.P8,CQ.T8,CQ.FC6,CQ.F4,CQ.F8,CQ.AF4,CQ.Overall,MOT.CounterMems,MOT.InterpolatedMems,MOT.Q0,MOT.Q1,MOT.Q2,MOT.Q3,MOT.AccX,MOT.AccY,MOT.AccZ,MOT.MagX,MOT.MagY,MOT.MagZ,PM.Engagement.IsActive,PM.Engagement.Scaled,PM.Engagement.Raw,PM.Engagement.Min,PM.Engagement.Max,PM.Excitement.IsActive,PM.Excitement.Scaled,PM.Excitement.Raw,PM.Excitement.Min,PM.Excitement.Max,PM.LongTermExcitement,PM.Stress.IsActive,PM.Stress.Scaled,PM.Stress.Raw,PM.Stress.Min,PM.Stress.Max,PM.Relaxation.IsActive,PM.Relaxation.Scaled,PM.Relaxation.Raw,PM.Relaxation.Min,PM.Relaxation.Max,PM.Interest.IsActive,PM.Interest.Scaled,PM.Interest.Raw,PM.Interest.Min,PM.Interest.Max,PM.Focus.IsActive,PM.Focus.Scaled,PM.Focus.Raw,PM.Focus.Min,PM.Focus.Max,POW.AF3.Theta,POW.AF3.Alpha,POW.AF3.BetaL,POW.AF3.BetaH,POW.AF3.Gamma,POW.F7.Theta,POW.F7.Alpha,POW.F7.BetaL,POW.F7.BetaH,POW.F7.Gamma,POW.F3.Theta,POW.F3.Alpha,POW.F3.BetaL,POW.F3.BetaH,POW.F3.Gamma,POW.FC5.Theta,POW.FC5.Alpha,POW.FC5.BetaL,POW.FC5.BetaH,POW.FC5.Gamma,POW.T7.Theta,POW.T7.Alpha,POW.T7.BetaL,POW.T7.BetaH,POW.T7.Gamma,POW.P7.Theta,POW.P7.Alpha,POW.P7.BetaL,POW.P7.BetaH,POW.P7.Gamma,POW.O1.Theta,POW.O1.Alpha,POW.O1.BetaL,POW.O1.BetaH,POW.O1.Gamma,POW.O2.Theta,POW.O2.Alpha,POW.O2.BetaL,POW.O2.BetaH,POW.O2.Gamma,POW.P8.Theta,POW.P8.Alpha,POW.P8.BetaL,POW.P8.BetaH,POW.P8.Gamma,POW.T8.Theta,POW.T8.Alpha,POW.T8.BetaL,POW.T8.BetaH,POW.T8.Gamma,POW.FC6.Theta,POW.FC6.Alpha,POW.FC6.BetaL,POW.FC6.BetaH,POW.FC6.Gamma,POW.F4.Theta,POW.F4.Alpha,POW.F4.BetaL,POW.F4.BetaH,POW.F4.Gamma,POW.F8.Theta,POW.F8.Alpha,POW.F8.BetaL,POW.F8.BetaH,POW.F8.Gamma,POW.AF4.Theta,POW.AF4.Alpha,POW.AF4.BetaL,POW.AF4.BetaH,POW.AF4.Gamma
1606508274.389012,90.000000,0.000000,4172.051270,4184.487305,4187.820313,4181.666504,4207.563965,4187.436035,4188.461426,4199.487305,4182.948730,4187.436035,4207.436035,4206.666504,4186.666504,4182.948730,3268.000000,4.000000,,,,0.000000,4.000000,4.000000,4.000000,4.000000,4.000000,4.000000,4.000000,4.000000,4.000000,4.000000,4.000000,4.000000,4.000000,4.000000,100.000000,,,,,,,,,,,,,,,,,,,,,,,,,,,,,,,,,,,,,,,,,,,,,,,,,,,,,,,,,,,,,,,,,,,,,,,,,,,,,,,,,,,,,,,,,,,,,,,,,,,,,,,,,,,,,,,,,
1606508274.396909,91.000000,0.000000,4166.794922,4179.230957,4177.436035,4173.205078,4215.384766,4181.153809,4185.256348,4197.948730,4175.769043,4182.692383,4189.615234,4192.051270,4185.256348,4166.922852,3383.000000,4.000000,,,,0.000000,4.000000,4.000000,4.000000,4.000000,4.000000,4.000000,4.000000,4.000000,4.000000,4.000000,4.000000,4.000000,4.000000,4.000000,100.000000,,,,,,,,,,,,,,,,,,,,,,,,,,,,,,,,,,,,,,,,,,,,,,,,,,,,,,,,,,,,,,,,,,,,,,,,,,,,,,,,,,,,,,,,,,,,,,,,,,,,,,,,,,,,,,,,,
1606508274.404805,92.000000,0.000000,4168.589844,4176.794922,4175.256348,4173.589844,4212.948730,4181.282227,4189.230957,4201.794922,4187.307617,4192.948730,4165.128418,4184.230957,4188.333496,4161.282227,3278.000000,4.000000,,,,0.000000,4.000000,4.000000,4.000000,4.000000,4.000000,4.000000,4.000000,4.000000,4.000000,4.000000,4.000000,4.000000,4.000000,4.000000,100.000000,23.000000,0.000000,0.703911,-0.056030,-0.678040,-0.204041,0.994156,0.125978,-0.004395,-29.608606,-113.499657,23.627069,,,,,,,,,,,,,,,,,,,,,,,,,,,,,,,,1.593596,1.673928,1.009264,0.487917,0.329564,0.688050,0.536147,0.537185,0.175738,0.207142,0.871375,1.348727,0.526707,0.245295,0.202181,0.404418,0.614943,0.542200,0.160873,0.185323,0.642498,0.546543,0.355187,0.358533,0.345915,0.256093,0.370248,0.220477,0.099758,0.088614,0.183520,0.622487,0.219201,0.174152,0.200422,1.936530,1.761033,0.612909,0.340351,0.363155,0.696043,0.590996,0.375155,0.359848,0.417594,1.865288,1.311408,1.029330,0.665402,0.808051,1.253915,1.395679,1.504195,2.395399,2.361064,1.373787,1.521386,0.937049,0.426694,0.401959,2.303153,1.256245,1.859361,1.575081,1.411232,2.271098,2.038824,1.738921,0.589250,0.427732
1606508274.412501,93.000000,0.000000,4171.538574,4182.948730,4182.307617,4180.256348,4207.948730,4188.205078,4197.307617,4218.205078,4198.974121,4202.051270,4168.333496,4190.769043,4177.820313,4168.205078,3216.000000,4.000000,,,,0.000000,4.000000,4.000000,4.000000,4.000000,4.000000,4.000000,4.000000,4.000000,4.000000,4.000000,4.000000,4.000000,4.000000,4.000000,100.000000,,,,,,,,,,,,,,,,,,,,,,,,,,,,,,,,,,,,,,,,,,,,,,,,,,,,,,,,,,,,,,,,,,,,,,,,,,,,,,,,,,,,,,,,,,,,,,,,,,,,,,,,,,,,,,,,,
1606508274.420197,94.000000,0.000000,4178.589844,4190.384766,4187.179688,4184.358887,4212.436035,4191.025879,4198.333496,4227.692383,4192.307617,4202.051270,4201.153809,4206.922852,4191.025879,4181.794922,3268.000000,4.000000,,,,0.000000,4.000000,4.000000,4.000000,4.000000,4.000000,4.000000,4.000000,4.000000,4.000000,4.000000,4.000000,4.000000,4.000000,4.000000,100.000000,,,,,,,,,,,,,,,,,,,,,,,,,,,,,,,,,,,,,,,,,,,,,,,,,,,,,,,,,,,,,,,,,,,,,,,,,,,,,,,,,,,,,,,,,,,,,,,,,,,,,,,,,,,,,,,,,
1606508274.427793,95.000000,0.000000,4178.333496,4183.589844,4179.871582,4179.871582,4216.282227,4189.102539,4189.615234,4218.077148,4181.153809,4195.897461,4206.794922,4206.410156,4209.743652,4185.256348,3383.000000,4.000000,,,,0.000000,4.000000,4.000000,4.000000,4.000000,4.000000,4.000000,4.000000,4.000000,4.000000,4.000000,4.000000,4.000000,4.000000,4.000000,100.000000,,,,,,,,,,,,,,,,,,,,,,,,,,,,,,,,,,,,,,,,,,,,,,,,,,,,,,,,,,,,,,,,,,,,,,,,,,,,,,,,,,,,,,,,,,,,,,,,,,,,,,,,,,,,,,,,,
1606508274.435489,96.000000,0.000000,4171.538574,4178.333496,4176.153809,4177.436035,4215.256348,4189.615234,4185.128418,4215.512695,4186.538574,4193.205078,4198.717773,4203.974121,4197.563965,4186.282227,3278.000000,4.000000,,,,0.000000,4.000000,4.000000,4.000000,4.000000,4.000000,4.000000,4.000000,4.000000,4.000000,4.000000,4.000000,4.000000,4.000000,4.000000,100.000000,24.000000,0.000000,0.704081,-0.056458,-0.677551,-0.204956,1.000504,0.132815,-0.012207,-30.356298,-114.546425,21.832609,,,,,,,,,,,,,,,,,,,,,,,,,,,,,,,,,,,,,,,,,,,,,,,,,,,,,,,,,,,,,,,,,,,,,,,,,,,,,,,,,,,,,,,,,,,,,,,,,,,,,
1606508274.443186,97.000000,0.000000,4174.102539,4185.769043,4185.256348,4184.743652,4220.256348,4187.179688,4188.461426,4222.692383,4195.128418,4196.282227,4202.692383,4212.692383,4186.922852,4192.563965,3216.000000,4.000000,,,,0.000000,4.000000,4.000000,4.000000,4.000000,4.000000,4.000000,4.000000,4.000000,4.000000,4.000000,4.000000,4.000000,4.000000,4.000000,100.000000,,,,,,,,,,,,,,,,,,,,,,,,,,,,,,,,,,,,,,,,,,,,,,,,,,,,,,,,,,,,,,,,,,,,,,,,,,,,,,,,,,,,,,,,,,,,,,,,,,,,,,,,,,,,,,,,,
1606508274.450882,98.000000,0.000000,4181.025879,4188.461426,4192.436035,4188.461426,4217.179688,4185.128418,4194.102539,4222.307617,4194.615234,4198.205078,4199.358887,4213.974121,4205.256348,4193.205078,3268.000000,4.000000,,,,0.000000,4.000000,4.000000,4.000000,4.000000,4.000000,4.000000,4.000000,4.000000,4.000000,4.000000,4.000000,4.000000,4.000000,4.000000,100.000000,,,,,,,,,,,,,,,,,,,,,,,,,,,,,,,,,,,,,,,,,,,,,,,,,,,,,,,,,,,,,,,,,,,,,,,,,,,,,,,,,,,,,,,,,,,,,,,,,,,,,,,,,,,,,,,,,
1606508274.458678,99.000000,0.000000,4185.000000,4182.820313,4194.487305,4181.922852,4199.871582,4187.051270,4195.769043,4218.461426,4194.102539,4191.922852,4203.974121,4214.102539,4219.102539,4192.948730,3383.000000,4.000000,,,,0.000000,4.000000,4.000000,4.000000,4.000000,4.000000,4.000000,4.000000,4.000000,4.000000,4.000000,4.000000,4.000000,4.000000,4.000000,100.000000,,,,,,,,,,,,,,,,,,,,,,,,,,,,,,,,,,,,,,,,,,,,,,,,,,,,,,,,,,,,,,,,,,,,,,,,,,,,,,,,,,,,,,,,,,,,,,,,,,,,,,,,,,,,,,,,,
1606508274.466374,100.000000,0.000000,4187.051270,4181.282227,4193.333496,4175.641113,4192.051270,4183.717773,4195.384766,4218.333496,4196.410156,4188.717773,4201.538574,4215.000000,4201.922852,4191.282227,3278.000000,4.000000,,,,0.000000,4.000000,4.000000,4.000000,4.000000,4.000000,4.000000,4.000000,4.000000,4.000000,4.000000,4.000000,4.000000,4.000000,4.000000,100.000000,25.000000,0.000000,0.704326,-0.056885,-0.677002,-0.205811,1.020035,0.122560,0.003906,-30.655375,-113.350121,21.982147,,,,,,,,,,,,,,,,,,,,,,,,,,,,,,,,,,,,,,,,,,,,,,,,,,,,,,,,,,,,,,,,,,,,,,,,,,,,,,,,,,,,,,,,,,,,,,,,,,,,,
1606508274.474070,101.000000,0.000000,4186.153809,4185.000000,4191.666504,4181.282227,4205.128418,4181.153809,4195.641113,4218.077148,4197.051270,4196.538574,4189.230957,4211.666504,4193.077148,4189.615234,3216.000000,4.000000,,,,0.000000,4.000000,4.000000,4.000000,4.000000,4.000000,4.000000,4.000000,4.000000,4.000000,4.000000,4.000000,4.000000,4.000000,4.000000,100.000000,,,,,,,,,,,,,,,,,,,,,,,,,,,,,,,,,,,,,,,,,,,,,,,,,,,,,,,,,,,,,,,,,,,,,,,,,,,,,,,,,,,,,,,,,,,,,,,,,,,,,,,,,,,,,,,,,
1606508274.481766,102.000000,0.000000,4178.077148,4181.922852,4187.692383,4184.871582,4210.641113,4185.384766,4193.333496,4213.974121,4193.974121,4192.179688,4200.769043,4209.230957,4197.820313,4191.153809,3268.000000,4.000000,,,,0.000000,4.000000,4.000000,4.000000,4.000000,4.000000,4.000000,4.000000,4.000000,4.000000,4.000000,4.000000,4.000000,4.000000,4.000000,100.000000,,,,,,,,,,,,,,,,,,,,,,,,,,,,,,,,,,,,,,,,,,,,,,,,,,,,,,,,,,,,,,,,,,,,,,,,,,,,,,,,,,,,,,,,,,,,,,,,,,,,,,,,,,,,,,,,,
1606508274.489562,103.000000,0.000000,4170.512695,4177.051270,4181.025879,4179.230957,4208.077148,4188.205078,4190.128418,4206.794922,4192.051270,4178.461426,4212.307617,4207.307617,4186.410156,4189.615234,3383.000000,4.000000,,,,0.000000,4.000000,4.000000,4.000000,4.000000,4.000000,4.000000,4.000000,4.000000,4.000000,4.000000,4.000000,4.000000,4.000000,4.000000,100.000000,,,,,,,,,,,,,,,,,,,,,,,,,,,,,,,,,,,,,,,,,,,,,,,,,,,,,,,,,,,,,,,,,,,,,,,,,,,,,,,,,,,,,,,,,,,,,,,,,,,,,,,,,,,,,,,,,
1606508274.497258,104.000000,0.000000,4164.743652,4172.948730,4169.487305,4168.846191,4207.307617,4182.820313,4187.948730,4203.205078,4189.358887,4180.256348,4179.871582,4195.384766,4177.820313,4175.384766,3278.000000,4.000000,,,,0.000000,4.000000,4.000000,4.000000,4.000000,4.000000,4.000000,4.000000,4.000000,4.000000,4.000000,4.000000,4.000000,4.000000,4.000000,100.000000,26.000000,0.000000,0.704576,-0.057312,-0.676575,-0.206238,1.025406,0.140139,0.002930,-31.253529,-113.499657,21.383993,,,,,,,,,,,,,,,,,,,,,,,,,,,,,,,,,,,,,,,,,,,,,,,,,,,,,,,,,,,,,,,,,,,,,,,,,,,,,,,,,,,,,,,,,,,,,,,,,,,,,
1606508274.504955,105.000000,0.000000,4168.589844,4173.205078,4168.846191,4167.692383,4204.743652,4180.000000,4190.000000,4208.974121,4191.794922,4193.333496,4165.000000,4192.563965,4194.487305,4171.666504,3216.000000,4.000000,,,,0.000000,4.000000,4.000000,4.000000,4.000000,4.000000,4.000000,4.000000,4.000000,4.000000,4.000000,4.000000,4.000000,4.000000,4.000000,100.000000,,,,,,,,,,,,,,,,,,,,,,,,,,,,,,,,,,,,,,,,,,,,,,,,,,,,,,,,,,,,,,,,,,,,,,,,,,,,,,,,,,,,,,,,,,,,,,,,,,,,,,,,,,,,,,,,,
1606508274.512851,106.000000,0.000000,4176.025879,4178.461426,4174.487305,4171.922852,4203.846191,4182.051270,4190.256348,4204.871582,4191.282227,4189.358887,4188.077148,4203.333496,4199.102539,4179.487305,3268.000000,4.000000,,,,0.000000,4.000000,4.000000,4.000000,4.000000,4.000000,4.000000,4.000000,4.000000,4.000000,4.000000,4.000000,4.000000,4.000000,4.000000,100.000000,,,,,,,,,,,,,,,,,,,,,,,,,,,,,,,,,,,,,,,,,,,,,,,,,,,,,,,,,,,,,,,,,,,,,,,,,,,,,,,,,,,,,,,,,,,,,,,,,,,,,,,,,,,,,,,,,
1606508274.520647,107.000000,0.000000,4182.436035,4185.512695,4177.948730,4176.153809,4204.615234,4185.512695,4194.230957,4201.538574,4192.948730,4185.128418,4205.641113,4214.230957,4198.461426,4187.563965,3383.000000,4.000000,,,,0.000000,4.000000,4.000000,4.000000,4.000000,4.000000,4.000000,4.000000,4.000000,4.000000,4.000000,4.000000,4.000000,4.000000,4.000000,100.000000,,,,,,,,,,,,,,,,,,,,,,,,,,,,,,,,,,,,,,,,,,,,,,,,,,,,,,,,,,,,,,,,,,,,,,,,,,,,,,,,,,,,,,,,,,,,,,,,,,,,,,,,,,,,,,,,,
1606508274.528343,108.000000,0.000000,4182.436035,4183.717773,4180.384766,4176.794922,4199.358887,4182.307617,4196.025879,4212.692383,4198.077148,4192.436035,4207.692383,4216.538574,4210.769043,4192.563965,3278.000000,4.000000,,,,0.000000,4.000000,4.000000,4.000000,4.000000,4.000000,4.000000,4.000000,4.000000,4.000000,4.000000,4.000000,4.000000,4.000000,4.000000,100.000000,27.000000,0.000000,0.704658,-0.057373,-0.676392,-0.206543,1.013199,0.135744,-0.008301,-31.851683,-112.153809,22.729839,,,,,,,,,,,,,,,,,,,,,,,,,,,,,,,,1.800546,1.778296,0.959185,0.524116,0.323067,0.615767,0.560602,0.517097,0.191544,0.200819,0.863903,1.310992,0.458373,0.231380,0.190655,0.437413,0.597151,0.475040,0.163518,0.161775,0.564122,0.597892,0.291112,0.414503,0.311455,0.254920,0.321860,0.202695,0.089485,0.080955,0.173761,0.561088,0.187712,0.163673,0.194438,1.738351,1.678420,0.618860,0.344584,0.357480,0.545232,0.751090,0.359148,0.357851,0.411332,1.669259,1.531531,0.906521,0.624409,0.789096,0.953503,1.302172,1.283826,2.398018,2.321422,0.973371,1.346793,0.734137,0.418003,0.399679,1.799224,1.105422,1.709151,1.615135,1.496084,1.748180,1.907820,1.488817,0.667269,0.422076
1606508274.536039,109.000000,0.000000,4175.641113,4177.436035,4180.128418,4176.538574,4199.102539,4179.487305,4191.282227,4219.230957,4196.282227,4191.410156,4208.333496,4216.538574,4204.358887,4190.769043,3216.000000,4.000000,,,,0.000000,4.000000,4.000000,4.000000,4.000000,4.000000,4.000000,4.000000,4.000000,4.000000,4.000000,4.000000,4.000000,4.000000,4.000000,100.000000,,,,,,,,,,,,,,,,,,,,,,,,,,,,,,,,,,,,,,,,,,,,,,,,,,,,,,,,,,,,,,,,,,,,,,,,,,,,,,,,,,,,,,,,,,,,,,,,,,,,,,,,,,,,,,,,,
1606508274.543935,110.000000,0.000000,4170.256348,4173.974121,4176.025879,4174.615234,4202.563965,4185.000000,4190.000000,4211.153809,4188.974121,4177.179688,4214.358887,4218.461426,4187.307617,4179.102539,3268.000000,4.000000,,,,0.000000,4.000000,4.000000,4.000000,4.000000,4.000000,4.000000,4.000000,4.000000,4.000000,4.000000,4.000000,4.000000,4.000000,4.000000,100.000000,,,,,,,,,,,,,,,,,,,,,,,,,,,,,,,,,,,,,,,,,,,,,,,,,,,,,,,,,,,,,,,,,,,,,,,,,,,,,,,,,,,,,,,,,,,,,,,,,,,,,,,,,,,,,,,,,
1606508274.551931,111.000000,0.000000,4170.641113,4173.205078,4173.589844,4170.256348,4197.563965,4184.358887,4188.205078,4206.922852,4188.333496,4177.051270,4201.794922,4208.974121,4190.641113,4167.692383,3383.000000,4.000000,,,,0.000000,4.000000,4.000000,4.000000,4.000000,4.000000,4.000000,4.000000,4.000000,4.000000,4.000000,4.000000,4.000000,4.000000,4.000000,100.000000,,,,,,,,,,,,,,,,,,,,,,,,,,,,,,,,,,,,,,,,,,,,,,,,,,,,,,,,,,,,,,,,,,,,,,,,,,,,,,,,,,,,,,,,,,,,,,,,,,,,,,,,,,,,,,,,,
1606508274.559828,112.000000,0.000000,4168.205078,4171.794922,4171.666504,4170.512695,4203.846191,4175.128418,4178.974121,4209.230957,4188.333496,4185.897461,4172.436035,4193.205078,4194.871582,4159.230957,3278.000000,4.000000,,,,0.000000,4.000000,4.000000,4.000000,4.000000,4.000000,4.000000,4.000000,4.000000,4.000000,4.000000,4.000000,4.000000,4.000000,4.000000,100.000000,28.000000,0.000000,0.704650,-0.057251,-0.676392,-0.206604,1.020035,0.138186,-0.001465,-30.655375,-111.406120,23.178453,,,,,,,,,,,,,,,,,,,,,,,,,,,,,,,,,,,,,,,,,,,,,,,,,,,,,,,,,,,,,,,,,,,,,,,,,,,,,,,,,,,,,,,,,,,,,,,,,,,,,
1606508274.567724,113.000000,0.000000,4164.102539,4169.871582,4170.000000,4174.358887,4217.563965,4176.666504,4180.512695,4209.102539,4186.025879,4184.487305,4177.820313,4197.692383,4192.436035,4158.077148,3216.000000,4.000000,,,,0.000000,4.000000,4.000000,4.000000,4.000000,4.000000,4.000000,4.000000,4.000000,4.000000,4.000000,4.000000,4.000000,4.000000,4.000000,100.000000,,,,,,,,,,,,,,,,,,,,,,,,,,,,,,,,,,,,,,,,,,,,,,,,,,,,,,,,,,,,,,,,,,,,,,,,,,,,,,,,,,,,,,,,,,,,,,,,,,,,,,,,,,,,,,,,,
1606508274.575620,114.000000,0.000000,4175.897461,4178.205078,4177.692383,4178.589844,4204.615234,4186.538574,4195.000000,4214.230957,4195.641113,4190.512695,4204.487305,4213.205078,4194.358887,4172.948730,3268.000000,4.000000,,,,0.000000,4.000000,4.000000,4.000000,4.000000,4.000000,4.000000,4.000000,4.000000,4.000000,4.000000,4.000000,4.000000,4.000000,4.000000,100.000000,,,,,,,,,,,,,,,,,,,,,,,,,,,,,,,,,,,,,,,,,,,,,,,,,,,,,,,,,,,,,,,,,,,,,,,,,,,,,,,,,,,,,,,,,,,,,,,,,,,,,,,,,,,,,,,,,
1606508274.583616,115.000000,0.000000,4190.128418,4191.666504,4184.358887,4184.615234,4190.128418,4185.256348,4197.307617,4216.666504,4200.128418,4196.666504,4198.974121,4209.743652,4194.743652,4179.743652,3383.000000,4.000000,,,,0.000000,4.000000,4.000000,4.000000,4.000000,4.000000,4.000000,4.000000,4.000000,4.000000,4.000000,4.000000,4.000000,4.000000,4.000000,100.000000,,,,,,,,,,,,,,,,,,,,,,,,,,,,,,,,,,,,,,,,,,,,,,,,,,,,,,,,,,,,,,,,,,,,,,,,,,,,,,,,,,,,,,,,,,,,,,,,,,,,,,,,,,,,,,,,,
1606508274.591512,116.000000,0.000000,4187.307617,4193.077148,4179.358887,4187.307617,4203.461426,4180.512695,4186.025879,4207.179688,4189.487305,4185.769043,4187.820313,4199.102539,4190.128418,4167.820313,3278.000000,4.000000,,,,0.000000,4.000000,4.000000,4.000000,4.000000,4.000000,4.000000,4.000000,4.000000,4.000000,4.000000,4.000000,4.000000,4.000000,4.000000,100.000000,29.000000,0.000000,0.704536,-0.056641,-0.676636,-0.206360,1.006851,0.130861,-0.004883,-29.459068,-113.350121,22.729839,,,,,,,,,,,,,,,,,,,,,,,,,,,,,,,,,,,,,,,,,,,,,,,,,,,,,,,,,,,,,,,,,,,,,,,,,,,,,,,,,,,,,,,,,,,,,,,,,,,,,
1606508274.599209,117.000000,0.000000,4172.692383,4182.179688,4168.846191,4178.461426,4211.922852,4180.256348,4180.256348,4198.717773,4182.051270,4172.436035,4181.666504,4190.769043,4167.692383,4150.897461,3216.000000,4.000000,,,,0.000000,4.000000,4.000000,4.000000,4.000000,4.000000,4.000000,4.000000,4.000000,4.000000,4.000000,4.000000,4.000000,4.000000,4.000000,100.000000,,,,,,,,,,,,,,,,,,,,,,,,,,,,,,,,,,,,,,,,,,,,,,,,,,,,,,,,,,,,,,,,,,,,,,,,,,,,,,,,,,,,,,,,,,,,,,,,,,,,,,,,,,,,,,,,,
1606508274.606905,118.000000,0.000000,4173.589844,4181.538574,4168.077148,4177.948730,4202.051270,4184.871582,4186.410156,4204.358887,4189.230957,4182.692383,4167.948730,4187.179688,4158.205078,4150.384766,3268.000000,4.000000,,,,0.000000,4.000000,4.000000,4.000000,4.000000,4.000000,4.000000,4.000000,4.000000,4.000000,4.000000,4.000000,4.000000,4.000000,4.000000,100.000000,,,,,,,,,,,,,,,,,,,,,,,,,,,,,,,,,,,,,,,,,,,,,,,,,,,,,,,,,,,,,,,,,,,,,,,,,,,,,,,,,,,,,,,,,,,,,,,,,,,,,,,,,,,,,,,,,
1606508274.614501,119.000000,0.000000,4185.641113,4190.000000,4175.000000,4184.743652,4194.102539,4187.051270,4193.333496,4211.794922,4192.051270,4185.897461,4186.794922,4197.179688,4192.307617,4163.333496,3383.000000,4.000000,,,,0.000000,4.000000,4.000000,4.000000,4.000000,4.000000,4.000000,4.000000,4.000000,4.000000,4.000000,4.000000,4.000000,4.000000,4.000000,100.000000,,,,,,,,,,,,,,,,,,,,,,,,,,,,,,,,,,,,,,,,,,,,,,,,,,,,,,,,,,,,,,,,,,,,,,,,,,,,,,,,,,,,,,,,,,,,,,,,,,,,,,,,,,,,,,,,,
1606508274.622197,120.000000,0.000000,4189.871582,4194.743652,4182.051270,4188.717773,4197.692383,4188.077148,4194.102539,4210.256348,4191.025879,4180.769043,4219.487305,4209.358887,4218.205078,4172.563965,3278.000000,4.000000,,,,0.000000,4.000000,4.000000,4.000000,4.000000,4.000000,4.000000,4.000000,4.000000,4.000000,4.000000,4.000000,4.000000,4.000000,4.000000,100.000000,30.000000,0.000000,0.704488,-0.056580,-0.676636,-0.206543,1.005386,0.122072,-0.001465,-29.758144,-112.901505,22.729839,,,,,,,,,,,,,,,,,,,,,,,,,,,,,,,,,,,,,,,,,,,,,,,,,,,,,,,,,,,,,,,,,,,,,,,,,,,,,,,,,,,,,,,,,,,,,,,,,,,,,
1606508274.629893,121.000000,0.000000,4185.897461,4191.794922,4181.025879,4190.256348,4204.615234,4190.128418,4193.589844,4209.102539,4193.974121,4188.974121,4200.256348,4203.077148,4190.256348,4167.436035,3216.000000,4.000000,,,,0.000000,4.000000,4.000000,4.000000,4.000000,4.000000,4.000000,4.000000,4.000000,4.000000,4.000000,4.000000,4.000000,4.000000,4.000000,100.000000,,,,,,,,,,,,,,,,,,,,,,,,,,,,,,,,,,,,,,,,,,,,,,,,,,,,,,,,,,,,,,,,,,,,,,,,,,,,,,,,,,,,,,,,,,,,,,,,,,,,,,,,,,,,,,,,,
1606508274.637589,122.000000,0.000000,4183.717773,4187.948730,4176.666504,4191.282227,4210.128418,4192.051270,4195.769043,4219.487305,4197.948730,4197.179688,4180.897461,4196.794922,4178.974121,4161.794922,3268.000000,4.000000,,,,0.000000,4.000000,4.000000,4.000000,4.000000,4.000000,4.000000,4.000000,4.000000,4.000000,4.000000,4.000000,4.000000,4.000000,4.000000,100.000000,,,,,,,,,,,,,,,,,,,,,,,,,,,,,,,,,,,,,,,,,,,,,,,,,,,,,,,,,,,,,,,,,,,,,,,,,,,,,,,,,,,,,,,,,,,,,,,,,,,,,,,,,,,,,,,,,
1606508274.645185,123.000000,0.000000,4176.794922,4184.358887,4170.769043,4183.205078,4208.333496,4189.102539,4191.666504,4223.333496,4196.538574,4192.051270,4188.077148,4193.846191,4195.897461,4156.025879,3383.000000,4.000000,,,,0.000000,4.000000,4.000000,4.000000,4.000000,4.000000,4.000000,4.000000,4.000000,4.000000,4.000000,4.000000,4.000000,4.000000,4.000000,100.000000,,,,,,,,,,,,,,,,,,,,,,,,,,,,,,,,,,,,,,,,,,,,,,,,,,,,,,,,,,,,,,,,,,,,,,,,,,,,,,,,,,,,,,,,,,,,,,,,,,,,,,,,,,,,,,,,,
1606508274.652881,124.000000,0.000000,4174.358887,4181.666504,4167.948730,4176.025879,4204.615234,4187.563965,4190.000000,4212.948730,4196.025879,4191.282227,4177.307617,4190.128418,4186.153809,4152.820313,3278.000000,4.000000,,,,0.000000,4.000000,4.000000,4.000000,4.000000,4.000000,4.000000,4.000000,4.000000,4.000000,4.000000,4.000000,4.000000,4.000000,4.000000,100.000000,31.000000,0.000000,0.704564,-0.056702,-0.676453,-0.206848,1.008804,0.126467,-0.000977,-31.851683,-113.649193,23.178453,,,,,,,,,,,,,,,,,,,,,,,,,,,,,,,,1.942109,1.745273,0.874691,0.527423,0.326025,0.584726,0.555095,0.472107,0.201927,0.200302,0.871024,1.245566,0.400919,0.215596,0.187783,0.499013,0.562712,0.396816,0.157238,0.144676,0.492777,0.627485,0.293430,0.460022,0.298803,0.247403,0.253851,0.175758,0.078551,0.075351,0.190321,0.463410,0.178412,0.157097,0.194219,1.699657,1.491072,0.657102,0.345023,0.360810,0.520834,0.984087,0.394523,0.345908,0.411856,1.773488,1.747142,0.934727,0.553799,0.762429,0.884237,1.327710,1.042082,2.335852,2.311234,0.838795,1.197247,0.578772,0.406979,0.405876,1.747864,1.046111,1.617361,1.551811,1.606611,1.720631,1.721558,1.291610,0.713696,0.437667
1606508274.660577,125.000000,0.000000,4184.358887,4183.077148,4171.410156,4179.358887,4206.794922,4189.487305,4192.948730,4207.692383,4193.846191,4192.820313,4181.025879,4197.051270,4175.769043,4158.589844,3216.000000,4.000000,,,,0.000000,4.000000,4.000000,4.000000,4.000000,4.000000,4.000000,4.000000,4.000000,4.000000,4.000000,4.000000,4.000000,4.000000,4.000000,100.000000,,,,,,,,,,,,,,,,,,,,,,,,,,,,,,,,,,,,,,,,,,,,,,,,,,,,,,,,,,,,,,,,,,,,,,,,,,,,,,,,,,,,,,,,,,,,,,,,,,,,,,,,,,,,,,,,,
1606508274.668273,126.000000,0.000000,4188.589844,4186.922852,4176.538574,4183.333496,4216.922852,4190.256348,4190.512695,4211.282227,4187.051270,4183.846191,4208.846191,4205.512695,4192.563965,4163.077148,3268.000000,4.000000,,,,0.000000,4.000000,4.000000,4.000000,4.000000,4.000000,4.000000,4.000000,4.000000,4.000000,4.000000,4.000000,4.000000,4.000000,4.000000,100.000000,,,,,,,,,,,,,,,,,,,,,,,,,,,,,,,,,,,,,,,,,,,,,,,,,,,,,,,,,,,,,,,,,,,,,,,,,,,,,,,,,,,,,,,,,,,,,,,,,,,,,,,,,,,,,,,,,
1606508274.676069,127.000000,0.000000,4183.077148,4189.102539,4180.384766,4184.615234,4221.025879,4190.384766,4188.974121,4208.846191,4184.358887,4177.436035,4196.282227,4200.384766,4200.128418,4159.615234,53.000000,4.000000,,,,0.000000,4.000000,4.000000,4.000000,4.000000,4.000000,4.000000,4.000000,4.000000,4.000000,4.000000,4.000000,4.000000,4.000000,4.000000,100.000000,,,,,,,,,,,,,,,,,,,,,,,,,,,,,,,,,,,,,,,,,,,,,,,,,,,,,,,,,,,,,,,,,,,,,,,,,,,,,,,,,,,,,,,,,,,,,,,,,,,,,,,,,,,,,,,,,
1606508274.683765,0.000000,0.000000,4187.051270,4190.641113,4184.230957,4189.230957,4210.769043,4189.615234,4194.871582,4210.769043,4190.256348,4183.589844,4169.230957,4197.179688,4190.000000,4158.333496,3309.000000,4.000000,,,,0.000000,4.000000,4.000000,4.000000,4.000000,4.000000,4.000000,4.000000,4.000000,4.000000,4.000000,4.000000,4.000000,4.000000,4.000000,100.000000,0.000000,0.000000,0.704750,-0.057251,-0.676025,-0.207458,1.017594,0.122560,0.005859,-29.758144,-113.649193,22.729839,,,,,,,,,,,,,,,,,,,,,,,,,,,,,,,,,,,,,,,,,,,,,,,,,,,,,,,,,,,,,,,,,,,,,,,,,,,,,,,,,,,,,,,,,,,,,,,,,,,,,
1606508274.691461,1.000000,0.000000,4196.153809,4189.102539,4187.436035,4193.846191,4196.410156,4184.871582,4199.358887,4222.051270,4202.563965,4196.794922,4182.051270,4205.769043,4188.461426,4161.538574,3458.000000,4.000000,,,,0.000000,4.000000,4.000000,4.000000,4.000000,4.000000,4.000000,4.000000,4.000000,4.000000,4.000000,4.000000,4.000000,4.000000,4.000000,100.000000,,,,,,,,,,,,,,,,,,,,,,,,,,,,,,,,,,,,,,,,,,,,,,,,,,,,,,,,,,,,,,,,,,,,,,,,,,,,,,,,,,,,,,,,,,,,,,,,,,,,,,,,,,,,,,,,,
1606508274.699157,2.000000,0.000000,4187.692383,4183.461426,4181.282227,4188.589844,4192.051270,4179.615234,4193.974121,4220.384766,4206.922852,4205.769043,4185.000000,4203.589844,4190.256348,4157.820313,3380.000000,4.000000,,,,0.000000,4.000000,4.000000,4.000000,4.000000,4.000000,4.000000,4.000000,4.000000,4.000000,4.000000,4.000000,4.000000,4.000000,4.000000,100.000000,,,,,,,,,,,,,,,,,,,,,,,,,,,,,,,,,,,,,,,,,,,,,,,,,,,,,,,,,,,,,,,,,,,,,,,,,,,,,,,,,,,,,,,,,,,,,,,,,,,,,,,,,,,,,,,,,
1606508274.706754,3.000000,0.000000,4176.794922,4185.000000,4174.487305,4183.717773,4200.128418,4181.025879,4189.487305,4207.820313,4198.717773,4202.692383,4190.256348,4200.641113,4183.846191,4156.666504,3331.000000,4.000000,,,,0.000000,4.000000,4.000000,4.000000,4.000000,4.000000,4.000000,4.000000,4.000000,4.000000,4.000000,4.000000,4.000000,4.000000,4.000000,100.000000,,,,,,,,,,,,,,,,,,,,,,,,,,,,,,,,,,,,,,,,,,,,,,,,,,,,,,,,,,,,,,,,,,,,,,,,,,,,,,,,,,,,,,,,,,,,,,,,,,,,,,,,,,,,,,,,,
1606508274.714449,4.000000,0.000000,4174.743652,4184.358887,4171.410156,4181.922852,4204.487305,4184.358887,4188.333496,4199.743652,4187.051270,4185.384766,4216.153809,4202.948730,4186.410156,4157.820313,3066.000000,4.000000,,,,0.000000,4.000000,4.000000,4.000000,4.000000,4.000000,4.000000,4.000000,4.000000,4.000000,4.000000,4.000000,4.000000,4.000000,4.000000,100.000000,1.000000,0.000000,0.705012,-0.057800,-0.675537,-0.208008,1.017594,0.125002,-0.001953,-29.159990,-113.499657,21.832609,,,,,,,,,,,,,,,,,,,,,,,,,,,,,,,,,,,,,,,,,,,,,,,,,,,,,,,,,,,,,,,,,,,,,,,,,,,,,,,,,,,,,,,,,,,,,,,,,,,,,
1606508274.722145,5.000000,0.000000,4174.871582,4182.948730,4170.512695,4181.282227,4204.615234,4181.922852,4186.282227,4199.615234,4188.717773,4179.487305,4199.487305,4198.717773,4198.205078,4156.922852,3234.000000,4.000000,,,,0.000000,4.000000,4.000000,4.000000,4.000000,4.000000,4.000000,4.000000,4.000000,4.000000,4.000000,4.000000,4.000000,4.000000,4.000000,100.000000,,,,,,,,,,,,,,,,,,,,,,,,,,,,,,,,,,,,,,,,,,,,,,,,,,,,,,,,,,,,,,,,,,,,,,,,,,,,,,,,,,,,,,,,,,,,,,,,,,,,,,,,,,,,,,,,,
1606508274.729842,6.000000,0.000000,4179.615234,4191.538574,4172.948730,4184.743652,4206.025879,4178.205078,4186.538574,4207.307617,4199.358887,4193.077148,4159.871582,4195.512695,4194.230957,4158.077148,2874.000000,4.000000,,,,0.000000,4.000000,4.000000,4.000000,4.000000,4.000000,4.000000,4.000000,4.000000,4.000000,4.000000,4.000000,4.000000,4.000000,4.000000,100.000000,,,,,,,,,,,,,,,,,,,,,,,,,,,,,,,,,,,,,,,,,,,,,,,,,,,,,,,,,,,,,,,,,,,,,,,,,,,,,,,,,,,,,,,,,,,,,,,,,,,,,,,,,,,,,,,,,
1606508274.737638,7.000000,0.000000,4195.128418,4201.538574,4180.384766,4193.974121,4206.282227,4184.871582,4193.077148,4218.077148,4205.897461,4206.922852,4183.461426,4208.717773,4201.538574,4172.820313,2502.000000,4.000000,,,,0.000000,4.000000,4.000000,4.000000,4.000000,4.000000,4.000000,4.000000,4.000000,4.000000,4.000000,4.000000,4.000000,4.000000,4.000000,100.000000,,,,,,,,,,,,,,,,,,,,,,,,,,,,,,,,,,,,,,,,,,,,,,,,,,,,,,,,,,,,,,,,,,,,,,,,,,,,,,,,,,,,,,,,,,,,,,,,,,,,,,,,,,,,,,,,,
1606508274.745334,8.000000,0.000000,4196.922852,4194.615234,4182.307617,4193.589844,4206.153809,4191.282227,4196.666504,4216.410156,4198.846191,4201.666504,4219.487305,4214.487305,4208.589844,4178.717773,3156.000000,4.000000,,,,0.000000,4.000000,4.000000,4.000000,4.000000,4.000000,4.000000,4.000000,4.000000,4.000000,4.000000,4.000000,4.000000,4.000000,4.000000,100.000000,2.000000,0.000000,0.705134,-0.058228,-0.675354,-0.208069,1.010758,0.136721,0.004395,-30.057220,-112.004272,24.075686,,,,,,,,,,,,,,,,,,,,,,,,,,,,,,,,,,,,,,,,,,,,,,,,,,,,,,,,,,,,,,,,,,,,,,,,,,,,,,,,,,,,,,,,,,,,,,,,,,,,,
1606508274.753030,9.000000,0.000000,4175.769043,4182.051270,4172.820313,4183.205078,4208.333496,4187.563965,4192.179688,4208.589844,4192.436035,4193.077148,4203.077148,4199.615234,4185.384766,4159.615234,3452.000000,4.000000,,,,0.000000,4.000000,4.000000,4.000000,4.000000,4.000000,4.000000,4.000000,4.000000,4.000000,4.000000,4.000000,4.000000,4.000000,4.000000,100.000000,,,,,,,,,,,,,,,,,,,,,,,,,,,,,,,,,,,,,,,,,,,,,,,,,,,,,,,,,,,,,,,,,,,,,,,,,,,,,,,,,,,,,,,,,,,,,,,,,,,,,,,,,,,,,,,,,
1606508274.760926,10.000000,0.000000,4168.461426,4181.666504,4163.589844,4174.615234,4200.128418,4179.871582,4189.102539,4209.615234,4195.128418,4193.333496,4175.641113,4187.307617,4173.205078,4144.871582,3280.000000,4.000000,,,,0.000000,4.000000,4.000000,4.000000,4.000000,4.000000,4.000000,4.000000,4.000000,4.000000,4.000000,4.000000,4.000000,4.000000,4.000000,100.000000,,,,,,,,,,,,,,,,,,,,,,,,,,,,,,,,,,,,,,,,,,,,,,,,,,,,,,,,,,,,,,,,,,,,,,,,,,,,,,,,,,,,,,,,,,,,,,,,,,,,,,,,,,,,,,,,,
1606508274.768922,11.000000,0.000000,4183.846191,4188.205078,4163.717773,4177.307617,4194.615234,4179.358887,4191.410156,4216.410156,4197.563965,4198.589844,4165.384766,4185.512695,4188.717773,4152.051270,3381.000000,4.000000,,,,0.000000,4.000000,4.000000,4.000000,4.000000,4.000000,4.000000,4.000000,4.000000,4.000000,4.000000,4.000000,4.000000,4.000000,4.000000,100.000000,,,,,,,,,,,,,,,,,,,,,,,,,,,,,,,,,,,,,,,,,,,,,,,,,,,,,,,,,,,,,,,,,,,,,,,,,,,,,,,,,,,,,,,,,,,,,,,,,,,,,,,,,,,,,,,,,
1606508274.776818,12.000000,0.000000,4184.358887,4182.692383,4163.974121,4179.743652,4203.717773,4184.230957,4189.358887,4217.179688,4192.948730,4194.230957,4159.743652,4182.307617,4185.256348,4154.743652,3261.000000,4.000000,,,,0.000000,4.000000,4.000000,4.000000,4.000000,4.000000,4.000000,4.000000,4.000000,4.000000,4.000000,4.000000,4.000000,4.000000,4.000000,100.000000,3.000000,0.000000,0.705129,-0.058289,-0.675354,-0.208069,1.001968,0.125978,-0.000488,-30.804913,-113.051041,24.524300,,,,,,,,,,,,,,,,,,,,,,,,,,,,,,,,2.012356,1.589140,0.768796,0.500332,0.335094,0.609053,0.520253,0.411973,0.204269,0.202927,0.882116,1.160859,0.358692,0.201283,0.191030,0.613364,0.527915,0.325404,0.145269,0.137113,0.423775,0.626214,0.364218,0.477482,0.298873,0.243382,0.185074,0.149742,0.069248,0.071496,0.238816,0.353207,0.191290,0.154466,0.194831,1.815011,1.253432,0.711573,0.343659,0.367134,0.625260,1.240260,0.444354,0.327589,0.409930,2.269571,1.898942,1.033372,0.466980,0.728418,1.109674,1.464556,0.836540,2.239497,2.287507,1.009879,1.114753,0.476425,0.399745,0.411265,2.215652,1.090557,1.545755,1.411276,1.708663,2.244488,1.552327,1.123396,0.726215,0.465840
1606508274.784515,13.000000,0.000000,4176.538574,4177.948730,4165.512695,4179.102539,4203.205078,4184.230957,4186.794922,4211.153809,4189.358887,4183.589844,4178.205078,4185.897461,4173.974121,4148.974121,3212.000000,4.000000,,,,0.000000,4.000000,4.000000,4.000000,4.000000,4.000000,4.000000,4.000000,4.000000,4.000000,4.000000,4.000000,4.000000,4.000000,4.000000,100.000000,,,,,,,,,,,,,,,,,,,,,,,,,,,,,,,,,,,,,,,,,,,,,,,,,,,,,,,,,,,,,,,,,,,,,,,,,,,,,,,,,,,,,,,,,,,,,,,,,,,,,,,,,,,,,,,,,
1606508274.792411,14.000000,0.000000,4185.384766,4186.410156,4175.897461,4182.179688,4187.179688,4181.282227,4194.358887,4211.666504,4194.102539,4188.974121,4199.358887,4199.230957,4188.333496,4155.384766,3280.000000,4.000000,,,,0.000000,4.000000,4.000000,4.000000,4.000000,4.000000,4.000000,4.000000,4.000000,4.000000,4.000000,4.000000,4.000000,4.000000,4.000000,100.000000,,,,,,,,,,,,,,,,,,,,,,,,,,,,,,,,,,,,,,,,,,,,,,,,,,,,,,,,,,,,,,,,,,,,,,,,,,,,,,,,,,,,,,,,,,,,,,,,,,,,,,,,,,,,,,,,,
1606508274.800407,15.000000,0.000000,4197.692383,4191.025879,4185.256348,4185.000000,4187.948730,4185.384766,4200.256348,4215.128418,4198.333496,4200.769043,4193.846191,4205.384766,4194.487305,4168.333496,3381.000000,4.000000,,,,0.000000,4.000000,4.000000,4.000000,4.000000,4.000000,4.000000,4.000000,4.000000,4.000000,4.000000,4.000000,4.000000,4.000000,4.000000,100.000000,,,,,,,,,,,,,,,,,,,,,,,,,,,,,,,,,,,,,,,,,,,,,,,,,,,,,,,,,,,,,,,,,,,,,,,,,,,,,,,,,,,,,,,,,,,,,,,,,,,,,,,,,,,,,,,,,
1606508274.808302,16.000000,0.000000,4194.358887,4181.794922,4183.717773,4181.025879,4199.230957,4189.871582,4195.769043,4210.769043,4195.256348,4200.000000,4200.512695,4205.128418,4181.025879,4170.641113,0.000000,4.000000,,,,0.000000,4.000000,4.000000,4.000000,4.000000,4.000000,4.000000,4.000000,4.000000,4.000000,4.000000,4.000000,4.000000,4.000000,4.000000,100.000000,4.000000,0.000000,0.704947,-0.058044,-0.675659,-0.207764,1.007828,0.128420,-0.001465,-29.608606,-113.499657,23.627069,,,,,,,,,,,,,,,,,,,,,,,,,,,,,,,,,,,,,,,,,,,,,,,,,,,,,,,,,,,,,,,,,,,,,,,,,,,,,,,,,,,,,,,,,,,,,,,,,,,,,
1606508274.815999,17.000000,0.000000,4184.615234,4176.538574,4177.563965,4175.128418,4192.563965,4186.025879,4200.128418,4207.820313,4197.436035,4202.948730,4209.102539,4206.282227,4186.922852,4164.487305,0.000000,4.000000,,,,0.000000,4.000000,4.000000,4.000000,4.000000,4.000000,4.000000,4.000000,4.000000,4.000000,4.000000,4.000000,4.000000,4.000000,4.000000,100.000000,,,,,,,,,,,,,,,,,,,,,,,,,,,,,,,,,,,,,,,,,,,,,,,,,,,,,,,,,,,,,,,,,,,,,,,,,,,,,,,,,,,,,,,,,,,,,,,,,,,,,,,,,,,,,,,,,
1606508274.823895,18.000000,0.000000,4179.615234,4177.692383,4175.000000,4171.153809,4180.128418,4183.333496,4210.128418,4213.461426,4209.615234,4217.948730,4190.512695,4203.846191,4207.692383,4164.871582,0.000000,4.000000,,,,0.000000,4.000000,4.000000,4.000000,4.000000,4.000000,4.000000,4.000000,4.000000,4.000000,4.000000,4.000000,4.000000,4.000000,4.000000,100.000000,,,,,,,,,,,,,,,,,,,,,,,,,,,,,,,,,,,,,,,,,,,,,,,,,,,,,,,,,,,,,,,,,,,,,,,,,,,,,,,,,,,,,,,,,,,,,,,,,,,,,,,,,,,,,,,,,
1606508274.831691,19.000000,0.000000,4173.205078,4171.025879,4167.692383,4167.948730,4187.179688,4183.589844,4197.948730,4206.410156,4200.641113,4211.282227,4178.974121,4191.794922,4202.307617,4160.512695,0.000000,4.000000,,,,0.000000,4.000000,4.000000,4.000000,4.000000,4.000000,4.000000,4.000000,4.000000,4.000000,4.000000,4.000000,4.000000,4.000000,4.000000,100.000000,,,,,,,,,,,,,,,,,,,,,,,,,,,,,,,,,,,,,,,,,,,,,,,,,,,,,,,,,,,,,,,,,,,,,,,,,,,,,,,,,,,,,,,,,,,,,,,,,,,,,,,,,,,,,,,,,
1606508274.839587,20.000000,0.000000,4173.205078,4170.000000,4163.974121,4170.641113,4207.820313,4181.538574,4182.563965,4195.000000,4184.358887,4195.512695,4186.922852,4184.871582,4178.717773,4152.179688,0.000000,4.000000,,,,0.000000,4.000000,4.000000,4.000000,4.000000,4.000000,4.000000,4.000000,4.000000,4.000000,4.000000,4.000000,4.000000,4.000000,4.000000,100.000000,5.000000,0.000000,0.704915,-0.058105,-0.675781,-0.207458,1.011734,0.122560,-0.007324,-30.655375,-112.901505,21.982147,,,,,,,,,,,,,,,,,,,,,,,,,,,,,,,,,,,,,,,,,,,,,,,,,,,,,,,,,,,,,,,,,,,,,,,,,,,,,,,,,,,,,,,,,,,,,,,,,,,,,
1606508274.847483,21.000000,0.000000,4186.153809,4182.179688,4173.589844,4176.153809,4205.000000,4178.461426,4191.794922,4200.897461,4193.589844,4201.922852,4202.307617,4197.307617,4188.846191,4162.820313,0.000000,4.000000,,,,0.000000,4.000000,4.000000,4.000000,4.000000,4.000000,4.000000,4.000000,4.000000,4.000000,4.000000,4.000000,4.000000,4.000000,4.000000,100.000000,,,,,,,,,,,,,,,,,,,,,,,,,,,,,,,,,,,,,,,,,,,,,,,,,,,,,,,,,,,,,,,,,,,,,,,,,,,,,,,,,,,,,,,,,,,,,,,,,,,,,,,,,,,,,,,,,
1606508274.855379,22.000000,0.000000,4202.820313,4193.717773,4186.153809,4184.487305,4186.410156,4182.948730,4203.717773,4209.102539,4207.179688,4216.410156,4213.461426,4211.282227,4218.333496,4182.436035,0.000000,4.000000,,,,0.000000,4.000000,4.000000,4.000000,4.000000,4.000000,4.000000,4.000000,4.000000,4.000000,4.000000,4.000000,4.000000,4.000000,4.000000,100.000000,,,,,,,,,,,,,,,,,,,,,,,,,,,,,,,,,,,,,,,,,,,,,,,,,,,,,,,,,,,,,,,,,,,,,,,,,,,,,,,,,,,,,,,,,,,,,,,,,,,,,,,,,,,,,,,,,
1606508274.863175,23.000000,0.000000,4196.282227,4189.102539,4179.487305,4186.410156,4189.230957,4185.897461,4194.871582,4204.102539,4193.589844,4210.769043,4189.743652,4197.563965,4190.641113,4168.974121,0.000000,4.000000,,,,0.000000,4.000000,4.000000,4.000000,4.000000,4.000000,4.000000,4.000000,4.000000,4.000000,4.000000,4.000000,4.000000,4.000000,4.000000,100.000000,,,,,,,,,,,,,,,,,,,,,,,,,,,,,,,,,,,,,,,,,,,,,,,,,,,,,,,,,,,,,,,,,,,,,,,,,,,,,,,,,,,,,,,,,,,,,,,,,,,,,,,,,,,,,,,,,
1606508274.870871,24.000000,0.000000,4183.846191,4184.615234,4167.948730,4182.563965,4206.153809,4185.256348,4188.846191,4205.384766,4186.153809,4204.230957,4163.974121,4181.666504,4157.307617,4148.205078,0.000000,4.000000,,,,0.000000,4.000000,4.000000,4.000000,4.000000,4.000000,4.000000,4.000000,4.000000,4.000000,4.000000,4.000000,4.000000,4.000000,4.000000,100.000000,6.000000,0.000000,0.704869,-0.058105,-0.675903,-0.207214,0.996109,0.114748,-0.004883,-29.758144,-113.350121,22.281223,,,,,,,,,,,,,,,,,,,,,,,,,,,,,,,,,,,,,,,,,,,,,,,,,,,,,,,,,,,,,,,,,,,,,,,,,,,,,,,,,,,,,,,,,,,,,,,,,,,,,
1606508274.878568,25.000000,0.000000,4185.128418,4187.692383,4167.307617,4177.436035,4204.230957,4184.358887,4191.410156,4210.897461,4193.077148,4204.743652,4173.846191,4182.051270,4177.948730,4147.307617,0.000000,4.000000,,,,0.000000,4.000000,4.000000,4.000000,4.000000,4.000000,4.000000,4.000000,4.000000,4.000000,4.000000,4.000000,4.000000,4.000000,4.000000,100.000000,,,,,,,,,,,,,,,,,,,,,,,,,,,,,,,,,,,,,,,,,,,,,,,,,,,,,,,,,,,,,,,,,,,,,,,,,,,,,,,,,,,,,,,,,,,,,,,,,,,,,,,,,,,,,,,,,
1606508274.886264,26.000000,0.000000,4185.512695,4187.692383,4169.230957,4176.794922,4196.410156,4185.256348,4191.538574,4209.230957,4193.205078,4198.205078,4189.487305,4183.589844,4204.230957,4147.820313,0.000000,4.000000,,,,0.000000,4.000000,4.000000,4.000000,4.000000,4.000000,4.000000,4.000000,4.000000,4.000000,4.000000,4.000000,4.000000,4.000000,4.000000,100.000000,,,,,,,,,,,,,,,,,,,,,,,,,,,,,,,,,,,,,,,,,,,,,,,,,,,,,,,,,,,,,,,,,,,,,,,,,,,,,,,,,,,,,,,,,,,,,,,,,,,,,,,,,,,,,,,,,
1606508274.894260,27.000000,0.000000,4181.666504,4183.333496,4167.563965,4177.179688,4197.820313,4184.102539,4190.897461,4210.384766,4190.897461,4195.384766,4198.333496,4185.512695,4194.487305,4149.871582,0.000000,4.000000,,,,0.000000,4.000000,4.000000,4.000000,4.000000,4.000000,4.000000,4.000000,4.000000,4.000000,4.000000,4.000000,4.000000,4.000000,4.000000,100.000000,,,,,,,,,,,,,,,,,,,,,,,,,,,,,,,,,,,,,,,,,,,,,,,,,,,,,,,,,,,,,,,,,,,,,,,,,,,,,,,,,,,,,,,,,,,,,,,,,,,,,,,,,,,,,,,,,
1606508274.902156,28.000000,0.000000,4184.102539,4180.128418,4166.666504,4173.077148,4196.666504,4185.512695,4193.589844,4216.153809,4192.948730,4205.384766,4216.153809,4199.230957,4193.717773,4162.820313,0.000000,4.000000,,,,0.000000,4.000000,4.000000,4.000000,4.000000,4.000000,4.000000,4.000000,4.000000,4.000000,4.000000,4.000000,4.000000,4.000000,4.000000,100.000000,7.000000,0.000000,0.704829,-0.058472,-0.676025,-0.206848,1.005875,0.112306,-0.010254,-30.655375,-112.153809,23.178453,,,,,,,,,,,,,,,,,,,,,,,,,,,,,,,,2.015959,1.366943,0.660048,0.459592,0.343918,0.677781,0.466285,0.351587,0.200155,0.203859,0.878416,1.072813,0.334537,0.196244,0.194700,0.775735,0.502322,0.268506,0.134582,0.137361,0.364271,0.597073,0.482214,0.460947,0.301185,0.249852,0.129395,0.131737,0.063170,0.068777,0.309906,0.252348,0.217766,0.159075,0.190926,2.010758,1.032064,0.752564,0.343430,0.366427,0.809223,1.445212,0.467923,0.312154,0.395387,3.012883,1.930554,1.100142,0.389977,0.685516,1.556440,1.676278,0.690388,2.156899,2.227989,1.397788,1.116280,0.413291,0.406328,0.410154,3.040707,1.222762,1.443346,1.243041,1.779484,3.203512,1.465412,0.955975,0.721375,0.492765
1606508274.910052,29.000000,0.000000,4185.512695,4178.077148,4166.282227,4169.871582,4191.282227,4187.179688,4195.000000,4216.025879,4196.153809,4216.922852,4201.666504,4205.256348,4200.000000,4165.128418,0.000000,4.000000,,,,0.000000,4.000000,4.000000,4.000000,4.000000,4.000000,4.000000,4.000000,4.000000,4.000000,4.000000,4.000000,4.000000,4.000000,4.000000,100.000000,,,,,,,,,,,,,,,,,,,,,,,,,,,,,,,,,,,,,,,,,,,,,,,,,,,,,,,,,,,,,,,,,,,,,,,,,,,,,,,,,,,,,,,,,,,,,,,,,,,,,,,,,,,,,,,,,
1606508274.917748,30.000000,0.000000,4181.666504,4181.410156,4169.743652,4173.974121,4190.512695,4183.974121,4197.563965,4219.743652,4202.563965,4226.794922,4170.000000,4200.512695,4186.538574,4161.282227,0.000000,4.000000,,,,0.000000,4.000000,4.000000,4.000000,4.000000,4.000000,4.000000,4.000000,4.000000,4.000000,4.000000,4.000000,4.000000,4.000000,4.000000,100.000000,,,,,,,,,,,,,,,,,,,,,,,,,,,,,,,,,,,,,,,,,,,,,,,,,,,,,,,,,,,,,,,,,,,,,,,,,,,,,,,,,,,,,,,,,,,,,,,,,,,,,,,,,,,,,,,,,
1606508274.925345,31.000000,0.000000,4181.538574,4183.205078,4172.692383,4178.974121,4201.153809,4187.179688,4196.153809,4219.615234,4198.077148,4218.461426,4174.358887,4198.205078,4183.846191,4162.563965,0.000000,4.000000,,,,0.000000,4.000000,4.000000,4.000000,4.000000,4.000000,4.000000,4.000000,4.000000,4.000000,4.000000,4.000000,4.000000,4.000000,4.000000,100.000000,,,,,,,,,,,,,,,,,,,,,,,,,,,,,,,,,,,,,,,,,,,,,,,,,,,,,,,,,,,,,,,,,,,,,,,,,,,,,,,,,,,,,,,,,,,,,,,,,,,,,,,,,,,,,,,,,
1606508274.933241,32.000000,0.000000,4182.692383,4178.461426,4174.102539,4175.512695,4212.436035,4196.538574,4191.282227,4210.000000,4183.589844,4194.615234,4184.230957,4193.205078,4173.717773,4155.384766,0.000000,4.000000,,,,0.000000,4.000000,4.000000,4.000000,4.000000,4.000000,4.000000,4.000000,4.000000,4.000000,4.000000,4.000000,4.000000,4.000000,4.000000,100.000000,8.000000,0.000000,0.704888,-0.059448,-0.675842,-0.206970,1.014664,0.108400,0.004395,-30.356298,-112.004272,23.327993,,,,,,,,,,,,,,,,,,,,,,,,,,,,,,,,,,,,,,,,,,,,,,,,,,,,,,,,,,,,,,,,,,,,,,,,,,,,,,,,,,,,,,,,,,,,,,,,,,,,,
1606508274.941137,33.000000,0.000000,4185.897461,4178.717773,4181.794922,4174.871582,4204.102539,4196.922852,4194.102539,4208.205078,4185.128418,4193.974121,4186.538574,4193.846191,4158.589844,4150.897461,0.000000,4.000000,,,,0.000000,4.000000,4.000000,4.000000,4.000000,4.000000,4.000000,4.000000,4.000000,4.000000,4.000000,4.000000,4.000000,4.000000,4.000000,100.000000,,,,,,,,,,,,,,,,,,,,,,,,,,,,,,,,,,,,,,,,,,,,,,,,,,,,,,,,,,,,,,,,,,,,,,,,,,,,,,,,,,,,,,,,,,,,,,,,,,,,,,,,,,,,,,,,,
1606508274.948834,34.000000,0.000000,4187.563965,4181.666504,4187.692383,4180.256348,4191.922852,4187.179688,4195.128418,4214.358887,4192.692383,4207.563965,4196.794922,4199.230957,4181.153809,4158.589844,0.000000,4.000000,,,,0.000000,4.000000,4.000000,4.000000,4.000000,4.000000,4.000000,4.000000,4.000000,4.000000,4.000000,4.000000,4.000000,4.000000,4.000000,100.000000,,,,,,,,,,,,,,,,,,,,,,,,,,,,,,,,,,,,,,,,,,,,,,,,,,,,,,,,,,,,,,,,,,,,,,,,,,,,,,,,,,,,,,,,,,,,,,,,,,,,,,,,,,,,,,,,,
1606508274.956830,35.000000,0.000000,4193.846191,4183.974121,4193.077148,4186.153809,4199.102539,4183.717773,4191.666504,4213.717773,4196.282227,4215.000000,4197.948730,4201.666504,4208.461426,4167.436035,0.000000,4.000000,,,,0.000000,4.000000,4.000000,4.000000,4.000000,4.000000,4.000000,4.000000,4.000000,4.000000,4.000000,4.000000,4.000000,4.000000,4.000000,100.000000,,,,,,,,,,,,,,,,,,,,,,,,,,,,,,,,,,,,,,,,,,,,,,,,,,,,,,,,,,,,,,,,,,,,,,,,,,,,,,,,,,,,,,,,,,,,,,,,,,,,,,,,,,,,,,,,,
1606508274.964726,36.000000,0.000000,4204.487305,4188.461426,4197.436035,4189.743652,4203.333496,4187.563965,4193.077148,4208.589844,4198.846191,4221.282227,4177.307617,4199.487305,4193.717773,4166.794922,0.000000,4.000000,,,,0.000000,4.000000,4.000000,4.000000,4.000000,4.000000,4.000000,4.000000,4.000000,4.000000,4.000000,4.000000,4.000000,4.000000,4.000000,100.000000,9.000000,0.000000,0.704974,-0.059814,-0.675720,-0.206970,1.005386,0.117189,0.002441,-30.655375,-112.901505,21.533531,,,,,,,,,,,,,,,,,,,,,,,,,,,,,,,,,,,,,,,,,,,,,,,,,,,,,,,,,,,,,,,,,,,,,,,,,,,,,,,,,,,,,,,,,,,,,,,,,,,,,
1606508274.972623,37.000000,0.000000,4207.307617,4192.692383,4192.948730,4189.230957,4199.615234,4189.102539,4192.436035,4205.512695,4194.230957,4222.563965,4174.230957,4197.051270,4177.820313,4162.820313,0.000000,4.000000,,,,0.000000,4.000000,4.000000,4.000000,4.000000,4.000000,4.000000,4.000000,4.000000,4.000000,4.000000,4.000000,4.000000,4.000000,4.000000,100.000000,,,,,,,,,,,,,,,,,,,,,,,,,,,,,,,,,,,,,,,,,,,,,,,,,,,,,,,,,,,,,,,,,,,,,,,,,,,,,,,,,,,,,,,,,,,,,,,,,,,,,,,,,,,,,,,,,
1606508274.980619,38.000000,0.000000,4195.256348,4192.948730,4183.589844,4185.641113,4202.563965,4184.743652,4187.692383,4200.897461,4184.615234,4212.051270,4190.512695,4191.794922,4184.102539,4155.000000,0.000000,4.000000,,,,0.000000,4.000000,4.000000,4.000000,4.000000,4.000000,4.000000,4.000000,4.000000,4.000000,4.000000,4.000000,4.000000,4.000000,4.000000,100.000000,,,,,,,,,,,,,,,,,,,,,,,,,,,,,,,,,,,,,,,,,,,,,,,,,,,,,,,,,,,,,,,,,,,,,,,,,,,,,,,,,,,,,,,,,,,,,,,,,,,,,,,,,,,,,,,,,
1606508274.988516,39.000000,0.000000,4185.256348,4194.102539,4185.256348,4189.358887,4212.179688,4189.615234,4190.641113,4200.256348,4187.307617,4210.641113,4191.666504,4188.205078,4183.974121,4149.743652,0.000000,4.000000,,,,0.000000,4.000000,4.000000,4.000000,4.000000,4.000000,4.000000,4.000000,4.000000,4.000000,4.000000,4.000000,4.000000,4.000000,4.000000,100.000000,,,,,,,,,,,,,,,,,,,,,,,,,,,,,,,,,,,,,,,,,,,,,,,,,,,,,,,,,,,,,,,,,,,,,,,,,,,,,,,,,,,,,,,,,,,,,,,,,,,,,,,,,,,,,,,,,
1606508274.996412,40.000000,0.000000,4184.871582,4190.128418,4185.769043,4190.769043,4210.512695,4197.948730,4197.563965,4204.102539,4190.384766,4211.410156,4185.512695,4186.794922,4175.769043,4143.846191,0.000000,4.000000,,,,0.000000,4.000000,4.000000,4.000000,4.000000,4.000000,4.000000,4.000000,4.000000,4.000000,4.000000,4.000000,4.000000,4.000000,4.000000,100.000000,10.000000,0.000000,0.705065,-0.059692,-0.675598,-0.207092,1.008804,0.119631,0.000488,-30.356298,-113.499657,22.879377,,,,,,,,,,,,,,,,,,,,,,,,,,,,,,,,,,,,,,,,,,,,,,,,,,,,,,,,,,,,,,,,,,,,,,,,,,,,,,,,,,,,,,,,,,,,,,,,,,,,,
1606508275.004309,41.000000,0.000000,4188.077148,4186.666504,4180.256348,4186.538574,4202.436035,4196.922852,4199.230957,4209.102539,4191.922852,4210.769043,4194.102539,4186.794922,4181.922852,4140.769043,0.000000,4.000000,,,,0.000000,4.000000,4.000000,4.000000,4.000000,4.000000,4.000000,4.000000,4.000000,4.000000,4.000000,4.000000,4.000000,4.000000,4.000000,100.000000,,,,,,,,,,,,,,,,,,,,,,,,,,,,,,,,,,,,,,,,,,,,,,,,,,,,,,,,,,,,,,,,,,,,,,,,,,,,,,,,,,,,,,,,,,,,,,,,,,,,,,,,,,,,,,,,,
1606508275.012205,42.000000,0.000000,4186.538574,4188.589844,4178.717773,4183.589844,4203.589844,4194.102539,4198.717773,4210.000000,4199.615234,4218.589844,4188.077148,4186.025879,4183.846191,4143.589844,0.000000,4.000000,,,,0.000000,4.000000,4.000000,4.000000,4.000000,4.000000,4.000000,4.000000,4.000000,4.000000,4.000000,4.000000,4.000000,4.000000,4.000000,100.000000,,,,,,,,,,,,,,,,,,,,,,,,,,,,,,,,,,,,,,,,,,,,,,,,,,,,,,,,,,,,,,,,,,,,,,,,,,,,,,,,,,,,,,,,,,,,,,,,,,,,,,,,,,,,,,,,,
1606508275.020201,43.000000,0.000000,4186.538574,4188.461426,4181.794922,4189.487305,4211.282227,4198.333496,4201.410156,4212.307617,4201.538574,4227.948730,4172.692383,4188.717773,4170.128418,4147.051270,0.000000,4.000000,,,,0.000000,4.000000,4.000000,4.000000,4.000000,4.000000,4.000000,4.000000,4.000000,4.000000,4.000000,4.000000,4.000000,4.000000,4.000000,100.000000,,,,,,,,,,,,,,,,,,,,,,,,,,,,,,,,,,,,,,,,,,,,,,,,,,,,,,,,,,,,,,,,,,,,,,,,,,,,,,,,,,,,,,,,,,,,,,,,,,,,,,,,,,,,,,,,,
1606508275.028098,44.000000,0.000000,4193.589844,4188.077148,4187.820313,4196.025879,4205.384766,4197.179688,4205.641113,4224.871582,4198.974121,4225.897461,4193.461426,4198.461426,4177.436035,4154.871582,0.000000,4.000000,,,,0.000000,4.000000,4.000000,4.000000,4.000000,4.000000,4.000000,4.000000,4.000000,4.000000,4.000000,4.000000,4.000000,4.000000,4.000000,100.000000,11.000000,0.000000,0.705089,-0.059082,-0.675720,-0.206787,1.017594,0.132815,0.010742,-30.356298,-113.798737,21.832609,,,,,,,,,,,,,,,,,,,,,,,,,,,,,,,,1.962930,1.144216,0.571111,0.432785,0.347614,0.765745,0.409087,0.305784,0.197552,0.199481,0.854082,0.996363,0.332303,0.212512,0.192904,0.959159,0.484969,0.226411,0.137303,0.140614,0.323302,0.552434,0.610759,0.417235,0.300655,0.276806,0.091445,0.123666,0.060782,0.067147,0.388149,0.171247,0.246000,0.175006,0.180364,2.176386,0.878007,0.754076,0.350505,0.351575,0.998590,1.531063,0.446880,0.310320,0.364244,3.742944,1.817943,1.082244,0.351122,0.632261,2.057812,1.915392,0.607032,2.144392,2.133513,1.837187,1.186897,0.383450,0.438886,0.401287,3.930941,1.399232,1.298140,1.099057,1.810430,4.318971,1.477831,0.797742,0.727128,0.505518
1606508275.035994,45.000000,0.000000,4195.897461,4189.358887,4190.512695,4192.436035,4193.846191,4190.384766,4204.102539,4227.563965,4201.666504,4220.128418,4210.384766,4205.384766,4200.897461,4163.205078,0.000000,4.000000,,,,0.000000,4.000000,4.000000,4.000000,4.000000,4.000000,4.000000,4.000000,4.000000,4.000000,4.000000,4.000000,4.000000,4.000000,4.000000,100.000000,,,,,,,,,,,,,,,,,,,,,,,,,,,,,,,,,,,,,,,,,,,,,,,,,,,,,,,,,,,,,,,,,,,,,,,,,,,,,,,,,,,,,,,,,,,,,,,,,,,,,,,,,,,,,,,,,
1606508275.043891,46.000000,0.000000,4186.666504,4180.769043,4183.589844,4183.077148,4202.563965,4188.717773,4193.717773,4211.025879,4194.871582,4213.077148,4178.077148,4195.897461,4186.666504,4154.487305,0.000000,4.000000,,,,0.000000,4.000000,4.000000,4.000000,4.000000,4.000000,4.000000,4.000000,4.000000,4.000000,4.000000,4.000000,4.000000,4.000000,4.000000,100.000000,,,,,,,,,,,,,,,,,,,,,,,,,,,,,,,,,,,,,,,,,,,,,,,,,,,,,,,,,,,,,,,,,,,,,,,,,,,,,,,,,,,,,,,,,,,,,,,,,,,,,,,,,,,,,,,,,
1606508275.051887,47.000000,0.000000,4184.230957,4173.333496,4177.051270,4181.922852,4214.743652,4185.000000,4185.384766,4202.820313,4181.025879,4201.153809,4165.512695,4186.282227,4164.358887,4142.820313,0.000000,4.000000,,,,0.000000,4.000000,4.000000,4.000000,4.000000,4.000000,4.000000,4.000000,4.000000,4.000000,4.000000,4.000000,4.000000,4.000000,4.000000,100.000000,,,,,,,,,,,,,,,,,,,,,,,,,,,,,,,,,,,,,,,,,,,,,,,,,,,,,,,,,,,,,,,,,,,,,,,,,,,,,,,,,,,,,,,,,,,,,,,,,,,,,,,,,,,,,,,,,
1606508275.059783,48.000000,0.000000,4197.563965,4184.230957,4186.153809,4190.641113,4198.717773,4181.666504,4193.461426,4222.179688,4195.641113,4210.641113,4197.692383,4200.897461,4185.512695,4160.512695,0.000000,4.000000,,,,0.000000,4.000000,4.000000,4.000000,4.000000,4.000000,4.000000,4.000000,4.000000,4.000000,4.000000,4.000000,4.000000,4.000000,4.000000,100.000000,12.000000,0.000000,0.704830,-0.058899,-0.676025,-0.206726,1.008316,0.143557,0.012207,-30.356298,-113.798737,21.383993,,,,,,,,,,,,,,,,,,,,,,,,,,,,,,,,,,,,,,,,,,,,,,,,,,,,,,,,,,,,,,,,,,,,,,,,,,,,,,,,,,,,,,,,,,,,,,,,,,,,,
1606508275.067679,49.000000,0.000000,4205.641113,4193.333496,4195.000000,4192.948730,4189.487305,4185.512695,4198.846191,4232.692383,4209.358887,4223.205078,4215.769043,4216.666504,4205.897461,4180.512695,0.000000,4.000000,,,,0.000000,4.000000,4.000000,4.000000,4.000000,4.000000,4.000000,4.000000,4.000000,4.000000,4.000000,4.000000,4.000000,4.000000,4.000000,100.000000,,,,,,,,,,,,,,,,,,,,,,,,,,,,,,,,,,,,,,,,,,,,,,,,,,,,,,,,,,,,,,,,,,,,,,,,,,,,,,,,,,,,,,,,,,,,,,,,,,,,,,,,,,,,,,,,,
1606508275.075575,50.000000,0.000000,4202.307617,4188.974121,4187.563965,4191.794922,4217.563965,4190.384766,4189.230957,4214.615234,4185.641113,4199.743652,4212.179688,4207.948730,4193.589844,4169.743652,0.000000,4.000000,,,,0.000000,4.000000,4.000000,4.000000,4.000000,4.000000,4.000000,4.000000,4.000000,4.000000,4.000000,4.000000,4.000000,4.000000,4.000000,100.000000,,,,,,,,,,,,,,,,,,,,,,,,,,,,,,,,,,,,,,,,,,,,,,,,,,,,,,,,,,,,,,,,,,,,,,,,,,,,,,,,,,,,,,,,,,,,,,,,,,,,,,,,,,,,,,,,,
1606508275.083571,51.000000,0.000000,4210.000000,4195.769043,4187.692383,4197.692383,4215.256348,4193.461426,4197.692383,4214.615234,4182.692383,4195.512695,4193.205078,4198.205078,4184.743652,4159.230957,0.000000,4.000000,,,,0.000000,4.000000,4.000000,4.000000,4.000000,4.000000,4.000000,4.000000,4.000000,4.000000,4.000000,4.000000,4.000000,4.000000,4.000000,100.000000,,,,,,,,,,,,,,,,,,,,,,,,,,,,,,,,,,,,,,,,,,,,,,,,,,,,,,,,,,,,,,,,,,,,,,,,,,,,,,,,,,,,,,,,,,,,,,,,,,,,,,,,,,,,,,,,,
1606508275.091467,52.000000,0.000000,4221.666504,4208.077148,4200.128418,4202.051270,4178.461426,4196.794922,4216.794922,4235.000000,4213.205078,4229.487305,4168.846191,4203.589844,4190.256348,4168.974121,0.000000,4.000000,,,,0.000000,4.000000,4.000000,4.000000,4.000000,4.000000,4.000000,4.000000,4.000000,4.000000,4.000000,4.000000,4.000000,4.000000,4.000000,100.000000,13.000000,0.000000,0.704440,-0.058716,-0.676392,-0.206909,1.004410,0.171878,-0.015625,-29.459068,-112.901505,21.982147,,,,,,,,,,,,,,,,,,,,,,,,,,,,,,,,,,,,,,,,,,,,,,,,,,,,,,,,,,,,,,,,,,,,,,,,,,,,,,,,,,,,,,,,,,,,,,,,,,,,,
1606508275.099163,53.000000,0.000000,4207.692383,4197.179688,4193.461426,4194.102539,4173.717773,4193.974121,4208.205078,4229.230957,4208.077148,4215.769043,4177.948730,4199.487305,4189.743652,4163.589844,0.000000,4.000000,,,,0.000000,4.000000,4.000000,4.000000,4.000000,4.000000,4.000000,4.000000,4.000000,4.000000,4.000000,4.000000,4.000000,4.000000,4.000000,100.000000,,,,,,,,,,,,,,,,,,,,,,,,,,,,,,,,,,,,,,,,,,,,,,,,,,,,,,,,,,,,,,,,,,,,,,,,,,,,,,,,,,,,,,,,,,,,,,,,,,,,,,,,,,,,,,,,,
1606508275.106859,54.000000,0.000000,4197.179688,4188.461426,4180.641113,4187.948730,4195.512695,4195.128418,4193.461426,4213.974121,4188.205078,4181.025879,4193.846191,4189.743652,4181.922852,4148.333496,0.000000,4.000000,,,,0.000000,4.000000,4.000000,4.000000,4.000000,4.000000,4.000000,4.000000,4.000000,4.000000,4.000000,4.000000,4.000000,4.000000,4.000000,100.000000,,,,,,,,,,,,,,,,,,,,,,,,,,,,,,,,,,,,,,,,,,,,,,,,,,,,,,,,,,,,,,,,,,,,,,,,,,,,,,,,,,,,,,,,,,,,,,,,,,,,,,,,,,,,,,,,,
1606508275.114656,55.000000,0.000000,4205.128418,4196.922852,4184.487305,4188.077148,4196.922852,4197.051270,4195.000000,4216.666504,4192.563965,4186.666504,4181.666504,4190.128418,4175.641113,4147.820313,0.000000,4.000000,,,,0.000000,4.000000,4.000000,4.000000,4.000000,4.000000,4.000000,4.000000,4.000000,4.000000,4.000000,4.000000,4.000000,4.000000,4.000000,100.000000,,,,,,,,,,,,,,,,,,,,,,,,,,,,,,,,,,,,,,,,,,,,,,,,,,,,,,,,,,,,,,,,,,,,,,,,,,,,,,,,,,,,,,,,,,,,,,,,,,,,,,,,,,,,,,,,,
1606508275.122352,56.000000,0.000000,4203.974121,4204.230957,4194.358887,4194.871582,4189.358887,4193.077148,4195.897461,4215.256348,4198.717773,4192.051270,4178.077148,4191.922852,4175.641113,4149.871582,0.000000,4.000000,,,,0.000000,4.000000,4.000000,4.000000,4.000000,4.000000,4.000000,4.000000,4.000000,4.000000,4.000000,4.000000,4.000000,4.000000,4.000000,100.000000,14.000000,0.000000,0.704273,-0.058777,-0.676392,-0.207458,0.988785,0.199222,-0.009766,-31.253529,-113.051041,23.627069,,,,,,,,,,,,,,,,,,,,,,,,,,,,,,,,,,,,,,,,,,,,,,,,,,,,,,,,,,,,,,,,,,,,,,,,,,,,,,,,,,,,,,,,,,,,,,,,,,,,,
1606508275.130048,57.000000,0.000000,4184.743652,4190.000000,4181.794922,4191.794922,4193.205078,4189.230957,4183.333496,4195.128418,4177.820313,4160.641113,4155.384766,4170.769043,4150.641113,4120.641113,0.000000,4.000000,,,,0.000000,4.000000,4.000000,4.000000,4.000000,4.000000,4.000000,4.000000,4.000000,4.000000,4.000000,4.000000,4.000000,4.000000,4.000000,100.000000,,,,,,,,,,,,,,,,,,,,,,,,,,,,,,,,,,,,,,,,,,,,,,,,,,,,,,,,,,,,,,,,,,,,,,,,,,,,,,,,,,,,,,,,,,,,,,,,,,,,,,,,,,,,,,,,,
1606508275.137744,58.000000,0.000000,4182.436035,4178.077148,4176.025879,4178.589844,4179.615234,4190.641113,4186.538574,4201.410156,4175.512695,4159.487305,4131.282227,4163.589844,4136.025879,4102.436035,0.000000,4.000000,,,,0.000000,4.000000,4.000000,4.000000,4.000000,4.000000,4.000000,4.000000,4.000000,4.000000,4.000000,4.000000,4.000000,4.000000,4.000000,100.000000,,,,,,,,,,,,,,,,,,,,,,,,,,,,,,,,,,,,,,,,,,,,,,,,,,,,,,,,,,,,,,,,,,,,,,,,,,,,,,,,,,,,,,,,,,,,,,,,,,,,,,,,,,,,,,,,,
1606508275.145340,59.000000,0.000000,4199.358887,4184.102539,4195.512695,4178.333496,4150.128418,4189.102539,4200.897461,4219.871582,4196.794922,4186.282227,4169.102539,4187.307617,4166.025879,4128.333496,0.000000,4.000000,,,,0.000000,4.000000,4.000000,4.000000,4.000000,4.000000,4.000000,4.000000,4.000000,4.000000,4.000000,4.000000,4.000000,4.000000,4.000000,100.000000,,,,,,,,,,,,,,,,,,,,,,,,,,,,,,,,,,,,,,,,,,,,,,,,,,,,,,,,,,,,,,,,,,,,,,,,,,,,,,,,,,,,,,,,,,,,,,,,,,,,,,,,,,,,,,,,,
1606508275.153036,60.000000,0.000000,4206.153809,4190.512695,4203.205078,4193.077148,4142.948730,4187.948730,4200.256348,4208.077148,4193.333496,4174.102539,4217.563965,4201.666504,4192.563965,4151.282227,0.000000,4.000000,,,,0.000000,4.000000,4.000000,4.000000,4.000000,4.000000,4.000000,4.000000,4.000000,4.000000,4.000000,4.000000,4.000000,4.000000,4.000000,100.000000,15.000000,0.000000,0.704081,-0.057556,-0.676453,-0.208252,0.989761,0.189944,-0.004395,-28.412298,-113.499657,23.627069,,,,,,,,,,,,,,,,,,,,,,,,,,,,,,,,1.847635,0.970013,0.519935,0.447322,0.345635,0.842552,0.366410,0.285855,0.206198,0.189675,0.797907,0.940029,0.354553,0.259727,0.183429,1.106070,0.469749,0.198859,0.164466,0.142174,0.300783,0.511650,0.711268,0.365424,0.302421,0.317344,0.069025,0.124034,0.061532,0.067287,0.453351,0.113016,0.264936,0.204026,0.166279,2.235475,0.800958,0.702918,0.368784,0.322524,1.117300,1.462217,0.386605,0.329184,0.322014,4.178947,1.571195,0.979037,0.373067,0.570098,2.394546,2.125981,0.575091,2.260071,2.021398,2.140241,1.284250,0.384447,0.509437,0.386024,4.504984,1.557279,1.134218,1.017251,1.805168,5.133736,1.538421,0.675742,0.771111,0.497561
1606508275.160732,61.000000,0.000000,4202.436035,4192.179688,4192.692383,4200.769043,4159.743652,4193.717773,4193.461426,4194.230957,4178.333496,4152.820313,4203.974121,4190.897461,4181.410156,4145.128418,0.000000,4.000000,,,,0.000000,4.000000,4.000000,4.000000,4.000000,4.000000,4.000000,4.000000,4.000000,4.000000,4.000000,4.000000,4.000000,4.000000,4.000000,100.000000,,,,,,,,,,,,,,,,,,,,,,,,,,,,,,,,,,,,,,,,,,,,,,,,,,,,,,,,,,,,,,,,,,,,,,,,,,,,,,,,,,,,,,,,,,,,,,,,,,,,,,,,,,,,,,,,,
1606508275.168429,62.000000,0.000000,4208.589844,4200.769043,4197.692383,4202.307617,4155.128418,4196.282227,4203.589844,4208.205078,4199.230957,4183.205078,4165.641113,4188.461426,4172.051270,4148.717773,0.000000,4.000000,,,,0.000000,4.000000,4.000000,4.000000,4.000000,4.000000,4.000000,4.000000,4.000000,4.000000,4.000000,4.000000,4.000000,4.000000,4.000000,100.000000,,,,,,,,,,,,,,,,,,,,,,,,,,,,,,,,,,,,,,,,,,,,,,,,,,,,,,,,,,,,,,,,,,,,,,,,,,,,,,,,,,,,,,,,,,,,,,,,,,,,,,,,,,,,,,,,,
1606508275.176425,63.000000,0.000000,4216.922852,4208.333496,4210.641113,4207.563965,4139.230957,4193.589844,4208.717773,4219.358887,4217.948730,4216.153809,4164.230957,4200.256348,4185.512695,4166.153809,0.000000,4.000000,,,,0.000000,4.000000,4.000000,4.000000,4.000000,4.000000,4.000000,4.000000,4.000000,4.000000,4.000000,4.000000,4.000000,4.000000,4.000000,100.000000,,,,,,,,,,,,,,,,,,,,,,,,,,,,,,,,,,,,,,,,,,,,,,,,,,,,,,,,,,,,,,,,,,,,,,,,,,,,,,,,,,,,,,,,,,,,,,,,,,,,,,,,,,,,,,,,,
1606508275.184321,64.000000,0.000000,4211.538574,4201.538574,4201.282227,4204.358887,4147.436035,4189.743652,4192.692383,4207.692383,4191.538574,4191.025879,4176.282227,4196.922852,4184.487305,4161.794922,3292.000000,4.000000,,,,0.000000,4.000000,4.000000,4.000000,4.000000,4.000000,4.000000,4.000000,4.000000,4.000000,4.000000,4.000000,4.000000,4.000000,4.000000,100.000000,16.000000,0.000000,0.703859,-0.055359,-0.676453,-0.209595,0.997086,0.151858,-0.002930,-30.206760,-113.350121,23.926146,,,,,,,,,,,,,,,,,,,,,,,,,,,,,,,,,,,,,,,,,,,,,,,,,,,,,,,,,,,,,,,,,,,,,,,,,,,,,,,,,,,,,,,,,,,,,,,,,,,,,
1606508275.192217,65.000000,0.000000,4213.205078,4201.538574,4195.769043,4200.128418,4149.102539,4187.820313,4189.358887,4207.051270,4182.563965,4174.230957,4178.717773,4194.230957,4177.820313,4158.717773,3440.000000,4.000000,,,,0.000000,4.000000,4.000000,4.000000,4.000000,4.000000,4.000000,4.000000,4.000000,4.000000,4.000000,4.000000,4.000000,4.000000,4.000000,100.000000,,,,,,,,,,,,,,,,,,,,,,,,,,,,,,,,,,,,,,,,,,,,,,,,,,,,,,,,,,,,,,,,,,,,,,,,,,,,,,,,,,,,,,,,,,,,,,,,,,,,,,,,,,,,,,,,,
1606508275.199914,66.000000,0.000000,4220.128418,4205.512695,4199.358887,4196.922852,4136.025879,4184.743652,4196.538574,4208.205078,4190.128418,4178.846191,4193.589844,4202.179688,4187.820313,4171.410156,3359.000000,4.000000,,,,0.000000,4.000000,4.000000,4.000000,4.000000,4.000000,4.000000,4.000000,4.000000,4.000000,4.000000,4.000000,4.000000,4.000000,4.000000,100.000000,,,,,,,,,,,,,,,,,,,,,,,,,,,,,,,,,,,,,,,,,,,,,,,,,,,,,,,,,,,,,,,,,,,,,,,,,,,,,,,,,,,,,,,,,,,,,,,,,,,,,,,,,,,,,,,,,
1606508275.207710,67.000000,0.000000,4217.436035,4203.205078,4196.794922,4193.461426,4136.666504,4185.384766,4196.666504,4204.615234,4184.871582,4173.589844,4215.769043,4206.153809,4198.717773,4175.128418,3315.000000,4.000000,,,,0.000000,4.000000,4.000000,4.000000,4.000000,4.000000,4.000000,4.000000,4.000000,4.000000,4.000000,4.000000,4.000000,4.000000,4.000000,100.000000,,,,,,,,,,,,,,,,,,,,,,,,,,,,,,,,,,,,,,,,,,,,,,,,,,,,,,,,,,,,,,,,,,,,,,,,,,,,,,,,,,,,,,,,,,,,,,,,,,,,,,,,,,,,,,,,,
1606508275.215606,68.000000,0.000000,4212.051270,4201.538574,4189.743652,4190.641113,4142.436035,4193.205078,4194.743652,4207.179688,4189.871582,4177.436035,4187.820313,4192.563965,4182.051270,4158.717773,3062.000000,4.000000,,,,0.000000,4.000000,4.000000,4.000000,4.000000,4.000000,4.000000,4.000000,4.000000,4.000000,4.000000,4.000000,4.000000,4.000000,4.000000,100.000000,17.000000,0.000000,0.703741,-0.053345,-0.676453,-0.210510,1.021012,0.123049,0.020508,-29.758144,-112.602425,21.982147,,,,,,,,,,,,,,,,,,,,,,,,,,,,,,,,,,,,,,,,,,,,,,,,,,,,,,,,,,,,,,,,,,,,,,,,,,,,,,,,,,,,,,,,,,,,,,,,,,,,,
1606508275.223503,69.000000,0.000000,4202.692383,4197.179688,4181.538574,4186.153809,4146.153809,4196.666504,4192.307617,4202.948730,4192.436035,4180.384766,4139.358887,4173.717773,4157.179688,4137.307617,3227.000000,4.000000,,,,0.000000,4.000000,4.000000,4.000000,4.000000,4.000000,4.000000,4.000000,4.000000,4.000000,4.000000,4.000000,4.000000,4.000000,4.000000,100.000000,,,,,,,,,,,,,,,,,,,,,,,,,,,,,,,,,,,,,,,,,,,,,,,,,,,,,,,,,,,,,,,,,,,,,,,,,,,,,,,,,,,,,,,,,,,,,,,,,,,,,,,,,,,,,,,,,
1606508275.231399,70.000000,0.000000,4188.077148,4190.641113,4175.000000,4180.128418,4147.051270,4189.487305,4191.153809,4192.563965,4177.307617,4165.769043,4138.974121,4167.179688,4152.692383,4122.692383,2865.000000,4.000000,,,,0.000000,4.000000,4.000000,4.000000,4.000000,4.000000,4.000000,4.000000,4.000000,4.000000,4.000000,4.000000,4.000000,4.000000,4.000000,100.000000,,,,,,,,,,,,,,,,,,,,,,,,,,,,,,,,,,,,,,,,,,,,,,,,,,,,,,,,,,,,,,,,,,,,,,,,,,,,,,,,,,,,,,,,,,,,,,,,,,,,,,,,,,,,,,,,,
1606508275.239195,71.000000,0.000000,4190.128418,4195.641113,4180.641113,4188.077148,4148.461426,4182.948730,4190.384766,4190.000000,4173.077148,4164.358887,4172.820313,4175.384766,4166.538574,4124.230957,2490.000000,4.000000,,,,0.000000,4.000000,4.000000,4.000000,4.000000,4.000000,4.000000,4.000000,4.000000,4.000000,4.000000,4.000000,4.000000,4.000000,4.000000,100.000000,,,,,,,,,,,,,,,,,,,,,,,,,,,,,,,,,,,,,,,,,,,,,,,,,,,,,,,,,,,,,,,,,,,,,,,,,,,,,,,,,,,,,,,,,,,,,,,,,,,,,,,,,,,,,,,,,
1606508275.247091,72.000000,0.000000,4194.871582,4200.512695,4190.000000,4197.692383,4145.384766,4177.179688,4185.128418,4190.384766,4177.307617,4168.846191,4189.487305,4179.743652,4172.820313,4131.410156,3145.000000,4.000000,,,,0.000000,4.000000,4.000000,4.000000,4.000000,4.000000,4.000000,4.000000,4.000000,4.000000,4.000000,4.000000,4.000000,4.000000,4.000000,100.000000,18.000000,0.000000,0.703692,-0.050781,-0.676758,-0.210327,1.001968,0.100587,0.014160,-30.804913,-112.303352,22.879377,,,,,,,,,,,,,,,,,,,,,,,,,,,,,,,,,,,,,,,,,,,,,,,,,,,,,,,,,,,,,,,,,,,,,,,,,,,,,,,,,,,,,,,,,,,,,,,,,,,,,
1606508275.254988,73.000000,0.000000,4188.333496,4198.974121,4189.743652,4196.410156,4138.589844,4171.666504,4181.666504,4188.717773,4176.025879,4166.922852,4166.538574,4169.230957,4161.922852,4126.153809,3440.000000,4.000000,,,,0.000000,4.000000,4.000000,4.000000,4.000000,4.000000,4.000000,4.000000,4.000000,4.000000,4.000000,4.000000,4.000000,4.000000,4.000000,100.000000,,,,,,,,,,,,,,,,,,,,,,,,,,,,,,,,,,,,,,,,,,,,,,,,,,,,,,,,,,,,,,,,,,,,,,,,,,,,,,,,,,,,,,,,,,,,,,,,,,,,,,,,,,,,,,,,,
1606508275.262883,74.000000,0.000000,4185.384766,4199.358887,4187.692383,4194.743652,4134.230957,4171.282227,4182.820313,4186.922852,4175.128418,4176.410156,4137.307617,4161.538574,4151.282227,4116.794922,3242.000000,4.000000,,,,0.000000,4.000000,4.000000,4.000000,4.000000,4.000000,4.000000,4.000000,4.000000,4.000000,4.000000,4.000000,4.000000,4.000000,4.000000,100.000000,,,,,,,,,,,,,,,,,,,,,,,,,,,,,,,,,,,,,,,,,,,,,,,,,,,,,,,,,,,,,,,,,,,,,,,,,,,,,,,,,,,,,,,,,,,,,,,,,,,,,,,,,,,,,,,,,
1606508275.270680,75.000000,0.000000,4189.358887,4200.384766,4190.897461,4197.051270,4134.102539,4175.641113,4187.436035,4187.179688,4172.948730,4185.000000,4152.436035,4168.717773,4159.487305,4123.205078,3360.000000,4.000000,,,,0.000000,4.000000,4.000000,4.000000,4.000000,4.000000,4.000000,4.000000,4.000000,4.000000,4.000000,4.000000,4.000000,4.000000,4.000000,100.000000,,,,,,,,,,,,,,,,,,,,,,,,,,,,,,,,,,,,,,,,,,,,,,,,,,,,,,,,,,,,,,,,,,,,,,,,,,,,,,,,,,,,,,,,,,,,,,,,,,,,,,,,,,,,,,,,,
1606508275.278376,76.000000,0.000000,4188.589844,4197.307617,4190.128418,4195.256348,4125.641113,4172.820313,4194.230957,4189.871582,4171.282227,4177.179688,4178.077148,4175.512695,4170.897461,4130.897461,3236.000000,4.000000,,,,0.000000,4.000000,4.000000,4.000000,4.000000,4.000000,4.000000,4.000000,4.000000,4.000000,4.000000,4.000000,4.000000,4.000000,4.000000,100.000000,19.000000,0.000000,0.703494,-0.048035,-0.677429,-0.209473,1.040543,0.094728,0.005371,-30.655375,-112.153809,21.533531,,,,,,,,,,,,,,,,,,,,,,,,,,,,,,,,1.679786,0.870403,0.507772,0.513099,0.340710,0.883908,0.360638,0.292963,0.230033,0.177821,0.747721,0.908475,0.394323,0.336285,0.168473,1.166930,0.453585,0.187616,0.216972,0.139519,0.281803,0.491725,0.755198,0.328245,0.317996,0.354773,0.061520,0.132898,0.064337,0.069986,0.486642,0.080957,0.270128,0.241503,0.155102,2.166581,0.772672,0.607199,0.395348,0.286983,1.117492,1.255099,0.309455,0.367344,0.282292,4.157527,1.249494,0.831459,0.465995,0.507510,2.442999,2.257049,0.563049,2.541695,1.906187,2.204717,1.368732,0.399501,0.621545,0.365467,4.536672,1.647487,0.980835,1.008703,1.771417,5.347175,1.580595,0.596504,0.866920,0.470303
1606508275.286272,77.000000,0.000000,4183.717773,4197.820313,4184.743652,4191.794922,4122.179688,4170.769043,4196.794922,4195.384766,4179.871582,4176.794922,4166.794922,4172.307617,4168.077148,4126.666504,3188.000000,4.000000,,,,0.000000,4.000000,4.000000,4.000000,4.000000,4.000000,4.000000,4.000000,4.000000,4.000000,4.000000,4.000000,4.000000,4.000000,4.000000,100.000000,,,,,,,,,,,,,,,,,,,,,,,,,,,,,,,,,,,,,,,,,,,,,,,,,,,,,,,,,,,,,,,,,,,,,,,,,,,,,,,,,,,,,,,,,,,,,,,,,,,,,,,,,,,,,,,,,
1606508275.293968,78.000000,0.000000,4183.717773,4200.000000,4184.871582,4193.589844,4135.897461,4180.384766,4198.846191,4197.436035,4186.538574,4189.615234,4160.769043,4171.922852,4163.846191,4124.615234,3242.000000,4.000000,,,,0.000000,4.000000,4.000000,4.000000,4.000000,4.000000,4.000000,4.000000,4.000000,4.000000,4.000000,4.000000,4.000000,4.000000,4.000000,100.000000,,,,,,,,,,,,,,,,,,,,,,,,,,,,,,,,,,,,,,,,,,,,,,,,,,,,,,,,,,,,,,,,,,,,,,,,,,,,,,,,,,,,,,,,,,,,,,,,,,,,,,,,,,,,,,,,,
1606508275.301764,79.000000,0.000000,4182.563965,4192.692383,4182.692383,4191.153809,4140.641113,4186.153809,4203.077148,4194.615234,4185.512695,4190.000000,4177.051270,4173.333496,4162.948730,4125.000000,3360.000000,4.000000,,,,0.000000,4.000000,4.000000,4.000000,4.000000,4.000000,4.000000,4.000000,4.000000,4.000000,4.000000,4.000000,4.000000,4.000000,4.000000,100.000000,,,,,,,,,,,,,,,,,,,,,,,,,,,,,,,,,,,,,,,,,,,,,,,,,,,,,,,,,,,,,,,,,,,,,,,,,,,,,,,,,,,,,,,,,,,,,,,,,,,,,,,,,,,,,,,,,
1606508275.309661,80.000000,0.000000,4180.897461,4189.358887,4178.717773,4188.077148,4133.205078,4181.025879,4207.307617,4197.563965,4192.179688,4193.077148,4178.333496,4174.230957,4164.871582,4123.461426,3236.000000,4.000000,,,,0.000000,4.000000,4.000000,4.000000,4.000000,4.000000,4.000000,4.000000,4.000000,4.000000,4.000000,4.000000,4.000000,4.000000,4.000000,100.000000,20.000000,0.000000,0.703210,-0.046814,-0.678223,-0.208130,1.027848,0.093263,0.023926,-29.608606,-110.060272,22.131685,,,,,,,,,,,,,,,,,,,,,,,,,,,,,,,,,,,,,,,,,,,,,,,,,,,,,,,,,,,,,,,,,,,,,,,,,,,,,,,,,,,,,,,,,,,,,,,,,,,,,
1606508275.317557,81.000000,0.000000,4177.179688,4194.615234,4177.307617,4187.948730,4132.307617,4177.436035,4207.563965,4206.922852,4194.230957,4200.641113,4170.512695,4176.153809,4168.461426,4122.692383,3188.000000,4.000000,,,,0.000000,4.000000,4.000000,4.000000,4.000000,4.000000,4.000000,4.000000,4.000000,4.000000,4.000000,4.000000,4.000000,4.000000,4.000000,100.000000,,,,,,,,,,,,,,,,,,,,,,,,,,,,,,,,,,,,,,,,,,,,,,,,,,,,,,,,,,,,,,,,,,,,,,,,,,,,,,,,,,,,,,,,,,,,,,,,,,,,,,,,,,,,,,,,,
1606508275.325454,82.000000,0.000000,4170.256348,4190.128418,4169.487305,4182.563965,4134.102539,4180.128418,4204.102539,4208.333496,4189.230957,4198.974121,4166.410156,4171.282227,4166.666504,4119.615234,3242.000000,4.000000,,,,0.000000,4.000000,4.000000,4.000000,4.000000,4.000000,4.000000,4.000000,4.000000,4.000000,4.000000,4.000000,4.000000,4.000000,4.000000,100.000000,,,,,,,,,,,,,,,,,,,,,,,,,,,,,,,,,,,,,,,,,,,,,,,,,,,,,,,,,,,,,,,,,,,,,,,,,,,,,,,,,,,,,,,,,,,,,,,,,,,,,,,,,,,,,,,,,
1606508275.333450,83.000000,0.000000,4157.692383,4177.051270,4157.051270,4173.589844,4134.358887,4179.615234,4196.538574,4199.102539,4187.307617,4193.461426,4161.538574,4162.179688,4159.871582,4109.615234,3360.000000,4.000000,,,,0.000000,4.000000,4.000000,4.000000,4.000000,4.000000,4.000000,4.000000,4.000000,4.000000,4.000000,4.000000,4.000000,4.000000,4.000000,100.000000,,,,,,,,,,,,,,,,,,,,,,,,,,,,,,,,,,,,,,,,,,,,,,,,,,,,,,,,,,,,,,,,,,,,,,,,,,,,,,,,,,,,,,,,,,,,,,,,,,,,,,,,,,,,,,,,,
1606508275.341347,84.000000,0.000000,4150.256348,4176.282227,4156.410156,4175.769043,4140.512695,4180.000000,4191.410156,4196.282227,4189.102539,4191.410156,4166.282227,4160.384766,4156.410156,4108.461426,3236.000000,4.000000,,,,0.000000,4.000000,4.000000,4.000000,4.000000,4.000000,4.000000,4.000000,4.000000,4.000000,4.000000,4.000000,4.000000,4.000000,4.000000,100.000000,21.000000,0.000000,0.703118,-0.045471,-0.678894,-0.206543,0.997086,0.112306,0.001953,-30.057220,-111.555656,22.131685,,,,,,,,,,,,,,,,,,,,,,,,,,,,,,,,,,,,,,,,,,,,,,,,,,,,,,,,,,,,,,,,,,,,,,,,,,,,,,,,,,,,,,,,,,,,,,,,,,,,,
1606508275.349243,85.000000,0.000000,4155.384766,4180.769043,4161.282227,4180.641113,4138.846191,4179.358887,4193.333496,4199.102539,4188.333496,4192.692383,4164.102539,4155.897461,4160.512695,4112.563965,3188.000000,4.000000,,,,0.000000,4.000000,4.000000,4.000000,4.000000,4.000000,4.000000,4.000000,4.000000,4.000000,4.000000,4.000000,4.000000,4.000000,4.000000,100.000000,,,,,,,,,,,,,,,,,,,,,,,,,,,,,,,,,,,,,,,,,,,,,,,,,,,,,,,,,,,,,,,,,,,,,,,,,,,,,,,,,,,,,,,,,,,,,,,,,,,,,,,,,,,,,,,,,
1606508275.357240,86.000000,0.000000,4175.512695,4192.051270,4175.000000,4189.487305,4132.436035,4180.897461,4200.512695,4203.333496,4197.436035,4209.871582,4171.666504,4164.358887,4180.128418,4127.563965,3242.000000,4.000000,,,,0.000000,4.000000,4.000000,4.000000,4.000000,4.000000,4.000000,4.000000,4.000000,4.000000,4.000000,4.000000,4.000000,4.000000,4.000000,100.000000,,,,,,,,,,,,,,,,,,,,,,,,,,,,,,,,,,,,,,,,,,,,,,,,,,,,,,,,,,,,,,,,,,,,,,,,,,,,,,,,,,,,,,,,,,,,,,,,,,,,,,,,,,,,,,,,,
1606508275.365136,87.000000,0.000000,4192.436035,4205.384766,4190.641113,4203.717773,4147.692383,4187.051270,4198.974121,4205.128418,4199.743652,4220.128418,4182.051270,4178.333496,4176.410156,4140.000000,3360.000000,4.000000,,,,0.000000,4.000000,4.000000,4.000000,4.000000,4.000000,4.000000,4.000000,4.000000,4.000000,4.000000,4.000000,4.000000,4.000000,4.000000,100.000000,,,,,,,,,,,,,,,,,,,,,,,,,,,,,,,,,,,,,,,,,,,,,,,,,,,,,,,,,,,,,,,,,,,,,,,,,,,,,,,,,,,,,,,,,,,,,,,,,,,,,,,,,,,,,,,,,
1606508275.373032,88.000000,0.000000,4195.769043,4205.769043,4194.743652,4210.769043,4162.051270,4190.256348,4195.512695,4209.230957,4191.153809,4207.051270,4181.410156,4178.846191,4163.846191,4141.666504,3236.000000,4.000000,,,,0.000000,4.000000,4.000000,4.000000,4.000000,4.000000,4.000000,4.000000,4.000000,4.000000,4.000000,4.000000,4.000000,4.000000,4.000000,100.000000,22.000000,0.000000,0.702744,-0.043884,-0.679626,-0.205750,1.004410,0.101076,-0.000977,-29.459068,-110.957504,21.234455,,,,,,,,,,,,,,,,,,,,,,,,,,,,,,,,,,,,,,,,,,,,,,,,,,,,,,,,,,,,,,,,,,,,,,,,,,,,,,,,,,,,,,,,,,,,,,,,,,,,,
1606508275.380929,89.000000,0.000000,4203.461426,4204.102539,4198.333496,4207.051270,4134.230957,4187.563965,4206.538574,4218.717773,4196.538574,4210.384766,4184.102539,4184.102539,4189.102539,4153.717773,3188.000000,4.000000,,,,0.000000,4.000000,4.000000,4.000000,4.000000,4.000000,4.000000,4.000000,4.000000,4.000000,4.000000,4.000000,4.000000,4.000000,4.000000,100.000000,,,,,,,,,,,,,,,,,,,,,,,,,,,,,,,,,,,,,,,,,,,,,,,,,,,,,,,,,,,,,,,,,,,,,,,,,,,,,,,,,,,,,,,,,,,,,,,,,,,,,,,,,,,,,,,,,
1606508275.388625,90.000000,0.000000,4218.974121,4210.128418,4207.436035,4205.384766,4110.000000,4189.615234,4218.589844,4221.282227,4206.794922,4231.666504,4193.077148,4197.820313,4211.794922,4169.743652,3242.000000,4.000000,,,,0.000000,4.000000,4.000000,4.000000,4.000000,4.000000,4.000000,4.000000,4.000000,4.000000,4.000000,4.000000,4.000000,4.000000,4.000000,100.000000,,,,,,,,,,,,,,,,,,,,,,,,,,,,,,,,,,,,,,,,,,,,,,,,,,,,,,,,,,,,,,,,,,,,,,,,,,,,,,,,,,,,,,,,,,,,,,,,,,,,,,,,,,,,,,,,,
1606508275.396421,91.000000,0.000000,4216.282227,4206.025879,4203.077148,4201.282227,4127.692383,4187.692383,4207.948730,4210.512695,4196.153809,4220.384766,4178.974121,4188.846191,4185.256348,4159.102539,3360.000000,4.000000,,,,0.000000,4.000000,4.000000,4.000000,4.000000,4.000000,4.000000,4.000000,4.000000,4.000000,4.000000,4.000000,4.000000,4.000000,4.000000,100.000000,,,,,,,,,,,,,,,,,,,,,,,,,,,,,,,,,,,,,,,,,,,,,,,,,,,,,,,,,,,,,,,,,,,,,,,,,,,,,,,,,,,,,,,,,,,,,,,,,,,,,,,,,,,,,,,,,
1606508275.404118,92.000000,0.000000,4201.410156,4195.128418,4192.179688,4194.743652,4140.000000,4181.282227,4195.384766,4204.743652,4182.436035,4196.153809,4157.948730,4173.974121,4164.615234,4141.538574,3236.000000,4.000000,,,,0.000000,4.000000,4.000000,4.000000,4.000000,4.000000,4.000000,4.000000,4.000000,4.000000,4.000000,4.000000,4.000000,4.000000,4.000000,100.000000,23.000000,0.000000,0.702555,-0.043701,-0.679871,-0.205627,1.000015,0.118654,-0.015137,-26.916914,-109.910736,20.785839,,,,,,,,,,,,,,,,,,,,,,,,,,,,,,,,1.453254,0.856113,0.523490,0.613792,0.337354,0.863943,0.409285,0.319000,0.264809,0.169318,0.713096,0.902601,0.442706,0.426504,0.154625,1.105096,0.439808,0.199359,0.284278,0.132873,0.254985,0.499402,0.739315,0.327845,0.358569,0.371044,0.073461,0.151781,0.068824,0.075225,0.477776,0.081531,0.270633,0.276802,0.153724,2.012163,0.761497,0.493569,0.419824,0.259354,0.982536,0.974460,0.246035,0.413830,0.264722,3.656182,0.947490,0.696495,0.618692,0.465433,2.192588,2.294470,0.551190,2.999309,1.796066,2.035073,1.432070,0.411583,0.763475,0.342331,4.007416,1.668934,0.865687,1.056422,1.719823,4.883669,1.616382,0.556365,1.003898,0.434850
1606508275.411814,93.000000,0.000000,4200.000000,4194.358887,4192.563965,4192.948730,4134.358887,4189.230957,4200.256348,4208.846191,4185.128418,4194.615234,4170.256348,4183.205078,4176.666504,4149.102539,3188.000000,4.000000,,,,0.000000,4.000000,4.000000,4.000000,4.000000,4.000000,4.000000,4.000000,4.000000,4.000000,4.000000,4.000000,4.000000,4.000000,4.000000,100.000000,,,,,,,,,,,,,,,,,,,,,,,,,,,,,,,,,,,,,,,,,,,,,,,,,,,,,,,,,,,,,,,,,,,,,,,,,,,,,,,,,,,,,,,,,,,,,,,,,,,,,,,,,,,,,,,,,
1606508275.419510,94.000000,0.000000,4203.589844,4198.205078,4192.948730,4195.128418,4147.179688,4196.538574,4205.384766,4207.692383,4192.051270,4202.179688,4182.692383,4189.102539,4177.051270,4157.307617,3242.000000,4.000000,,,,0.000000,4.000000,4.000000,4.000000,4.000000,4.000000,4.000000,4.000000,4.000000,4.000000,4.000000,4.000000,4.000000,4.000000,4.000000,100.000000,,,,,,,,,,,,,,,,,,,,,,,,,,,,,,,,,,,,,,,,,,,,,,,,,,,,,,,,,,,,,,,,,,,,,,,,,,,,,,,,,,,,,,,,,,,,,,,,,,,,,,,,,,,,,,,,,
1606508275.427506,95.000000,0.000000,4200.641113,4199.487305,4192.820313,4197.820313,4157.692383,4192.563965,4204.743652,4206.794922,4197.692383,4206.538574,4190.128418,4187.948730,4173.589844,4155.897461,3360.000000,4.000000,,,,0.000000,4.000000,4.000000,4.000000,4.000000,4.000000,4.000000,4.000000,4.000000,4.000000,4.000000,4.000000,4.000000,4.000000,4.000000,100.000000,,,,,,,,,,,,,,,,,,,,,,,,,,,,,,,,,,,,,,,,,,,,,,,,,,,,,,,,,,,,,,,,,,,,,,,,,,,,,,,,,,,,,,,,,,,,,,,,,,,,,,,,,,,,,,,,,
1606508275.435402,96.000000,0.000000,4198.846191,4194.871582,4195.384766,4198.974121,4143.717773,4194.102539,4205.512695,4213.846191,4200.641113,4208.974121,4196.922852,4192.051270,4179.871582,4158.717773,3236.000000,4.000000,,,,0.000000,4.000000,4.000000,4.000000,4.000000,4.000000,4.000000,4.000000,4.000000,4.000000,4.000000,4.000000,4.000000,4.000000,4.000000,100.000000,24.000000,0.000000,0.702383,-0.042969,-0.680298,-0.204956,1.002945,0.123537,0.000977,-30.057220,-110.508888,20.636301,,,,,,,,,,,,,,,,,,,,,,,,,,,,,,,,,,,,,,,,,,,,,,,,,,,,,,,,,,,,,,,,,,,,,,,,,,,,,,,,,,,,,,,,,,,,,,,,,,,,,
1606508275.443098,97.000000,0.000000,4205.384766,4200.897461,4198.461426,4205.128418,4144.230957,4201.025879,4210.384766,4221.794922,4206.794922,4219.102539,4180.000000,4196.410156,4183.205078,4169.102539,3188.000000,4.000000,,,,0.000000,4.000000,4.000000,4.000000,4.000000,4.000000,4.000000,4.000000,4.000000,4.000000,4.000000,4.000000,4.000000,4.000000,4.000000,100.000000,,,,,,,,,,,,,,,,,,,,,,,,,,,,,,,,,,,,,,,,,,,,,,,,,,,,,,,,,,,,,,,,,,,,,,,,,,,,,,,,,,,,,,,,,,,,,,,,,,,,,,,,,,,,,,,,,
1606508275.450795,98.000000,0.000000,4208.333496,4213.717773,4199.871582,4209.230957,4157.051270,4199.358887,4208.589844,4216.538574,4204.487305,4219.743652,4173.974121,4198.717773,4175.897461,4176.794922,3242.000000,4.000000,,,,0.000000,4.000000,4.000000,4.000000,4.000000,4.000000,4.000000,4.000000,4.000000,4.000000,4.000000,4.000000,4.000000,4.000000,4.000000,100.000000,,,,,,,,,,,,,,,,,,,,,,,,,,,,,,,,,,,,,,,,,,,,,,,,,,,,,,,,,,,,,,,,,,,,,,,,,,,,,,,,,,,,,,,,,,,,,,,,,,,,,,,,,,,,,,,,,
1606508275.458391,99.000000,0.000000,4202.179688,4210.512695,4200.256348,4207.692383,4160.897461,4197.820313,4201.794922,4205.512695,4191.794922,4205.128418,4199.615234,4201.410156,4177.436035,4176.922852,3360.000000,4.000000,,,,0.000000,4.000000,4.000000,4.000000,4.000000,4.000000,4.000000,4.000000,4.000000,4.000000,4.000000,4.000000,4.000000,4.000000,4.000000,100.000000,,,,,,,,,,,,,,,,,,,,,,,,,,,,,,,,,,,,,,,,,,,,,,,,,,,,,,,,,,,,,,,,,,,,,,,,,,,,,,,,,,,,,,,,,,,,,,,,,,,,,,,,,,,,,,,,,
1606508275.466287,100.000000,0.000000,4196.410156,4201.153809,4199.743652,4207.436035,4159.230957,4201.282227,4203.974121,4210.128418,4193.077148,4201.922852,4203.717773,4201.153809,4190.769043,4174.102539,3236.000000,4.000000,,,,0.000000,4.000000,4.000000,4.000000,4.000000,4.000000,4.000000,4.000000,4.000000,4.000000,4.000000,4.000000,4.000000,4.000000,4.000000,100.000000,25.000000,0.000000,0.702254,-0.042664,-0.680542,-0.204651,1.005386,0.124025,-0.003418,-30.655375,-111.705193,19.589533,,,,,,,,,,,,,,,,,,,,,,,,,,,,,,,,,,,,,,,,,,,,,,,,,,,,,,,,,,,,,,,,,,,,,,,,,,,,,,,,,,,,,,,,,,,,,,,,,,,,,
1606508275.473983,101.000000,0.000000,4200.256348,4205.256348,4203.589844,4212.307617,4159.871582,4202.563965,4212.436035,4224.230957,4206.153809,4215.128418,4181.410156,4199.102539,4196.410156,4175.128418,3188.000000,4.000000,,,,0.000000,4.000000,4.000000,4.000000,4.000000,4.000000,4.000000,4.000000,4.000000,4.000000,4.000000,4.000000,4.000000,4.000000,4.000000,100.000000,,,,,,,,,,,,,,,,,,,,,,,,,,,,,,,,,,,,,,,,,,,,,,,,,,,,,,,,,,,,,,,,,,,,,,,,,,,,,,,,,,,,,,,,,,,,,,,,,,,,,,,,,,,,,,,,,
1606508275.481679,102.000000,0.000000,4204.487305,4205.256348,4203.333496,4208.974121,4156.153809,4198.589844,4210.000000,4218.461426,4197.692383,4212.436035,4168.589844,4191.410156,4180.512695,4168.717773,3242.000000,4.000000,,,,0.000000,4.000000,4.000000,4.000000,4.000000,4.000000,4.000000,4.000000,4.000000,4.000000,4.000000,4.000000,4.000000,4.000000,4.000000,100.000000,,,,,,,,,,,,,,,,,,,,,,,,,,,,,,,,,,,,,,,,,,,,,,,,,,,,,,,,,,,,,,,,,,,,,,,,,,,,,,,,,,,,,,,,,,,,,,,,,,,,,,,,,,,,,,,,,
1606508275.489476,103.000000,0.000000,4204.230957,4197.948730,4196.410156,4202.436035,4154.358887,4191.922852,4202.948730,4206.794922,4185.897461,4200.000000,4169.358887,4187.436035,4164.615234,4163.717773,3360.000000,4.000000,,,,0.000000,4.000000,4.000000,4.000000,4.000000,4.000000,4.000000,4.000000,4.000000,4.000000,4.000000,4.000000,4.000000,4.000000,4.000000,100.000000,,,,,,,,,,,,,,,,,,,,,,,,,,,,,,,,,,,,,,,,,,,,,,,,,,,,,,,,,,,,,,,,,,,,,,,,,,,,,,,,,,,,,,,,,,,,,,,,,,,,,,,,,,,,,,,,,
1606508275.497372,104.000000,0.000000,4196.922852,4191.410156,4187.692383,4197.179688,4157.948730,4190.256348,4204.871582,4208.846191,4187.307617,4190.641113,4175.769043,4185.000000,4167.307617,4160.384766,3236.000000,4.000000,,,,0.000000,4.000000,4.000000,4.000000,4.000000,4.000000,4.000000,4.000000,4.000000,4.000000,4.000000,4.000000,4.000000,4.000000,4.000000,100.000000,26.000000,0.000000,0.702234,-0.042114,-0.680725,-0.204224,1.006851,0.126467,-0.006348,-30.655375,-110.658424,22.729839,,,,,,,,,,,,,,,,,,,,,,,,,,,,,,,,,,,,,,,,,,,,,,,,,,,,,,,,,,,,,,,,,,,,,,,,,,,,,,,,,,,,,,,,,,,,,,,,,,,,,
1606508275.505268,105.000000,0.000000,4188.717773,4187.436035,4183.589844,4192.820313,4157.948730,4192.948730,4206.025879,4208.846191,4186.025879,4178.974121,4188.461426,4176.025879,4172.307617,4151.922852,3188.000000,4.000000,,,,0.000000,4.000000,4.000000,4.000000,4.000000,4.000000,4.000000,4.000000,4.000000,4.000000,4.000000,4.000000,4.000000,4.000000,4.000000,100.000000,,,,,,,,,,,,,,,,,,,,,,,,,,,,,,,,,,,,,,,,,,,,,,,,,,,,,,,,,,,,,,,,,,,,,,,,,,,,,,,,,,,,,,,,,,,,,,,,,,,,,,,,,,,,,,,,,
1606508275.513164,106.000000,0.000000,4185.897461,4186.538574,4182.436035,4191.282227,4154.358887,4187.179688,4198.846191,4198.205078,4178.461426,4176.282227,4181.666504,4169.615234,4162.820313,4146.410156,3242.000000,4.000000,,,,0.000000,4.000000,4.000000,4.000000,4.000000,4.000000,4.000000,4.000000,4.000000,4.000000,4.000000,4.000000,4.000000,4.000000,4.000000,100.000000,,,,,,,,,,,,,,,,,,,,,,,,,,,,,,,,,,,,,,,,,,,,,,,,,,,,,,,,,,,,,,,,,,,,,,,,,,,,,,,,,,,,,,,,,,,,,,,,,,,,,,,,,,,,,,,,,
1606508275.520960,107.000000,0.000000,4185.897461,4187.692383,4183.846191,4192.051270,4156.282227,4185.128418,4195.128418,4195.128418,4178.717773,4185.000000,4163.974121,4172.563965,4153.974121,4148.846191,3360.000000,4.000000,,,,0.000000,4.000000,4.000000,4.000000,4.000000,4.000000,4.000000,4.000000,4.000000,4.000000,4.000000,4.000000,4.000000,4.000000,4.000000,100.000000,,,,,,,,,,,,,,,,,,,,,,,,,,,,,,,,,,,,,,,,,,,,,,,,,,,,,,,,,,,,,,,,,,,,,,,,,,,,,,,,,,,,,,,,,,,,,,,,,,,,,,,,,,,,,,,,,
1606508275.528656,108.000000,0.000000,4186.153809,4188.717773,4187.307617,4193.717773,4160.897461,4188.717773,4195.256348,4205.641113,4185.897461,4193.461426,4160.897461,4173.974121,4159.487305,4150.256348,3236.000000,4.000000,,,,0.000000,4.000000,4.000000,4.000000,4.000000,4.000000,4.000000,4.000000,4.000000,4.000000,4.000000,4.000000,4.000000,4.000000,4.000000,100.000000,27.000000,0.000000,0.702093,-0.041199,-0.681091,-0.203674,1.025895,0.127443,-0.039551,-28.561836,-111.406120,21.982147,,,,,,,,,,,,,,,,,,,,,,,,,,,,,,,,1.207841,0.939971,0.545424,0.714563,0.338585,0.791903,0.519646,0.349293,0.300298,0.168195,0.716091,0.932010,0.491737,0.506173,0.149635,0.943202,0.454073,0.239310,0.348954,0.124791,0.253963,0.530532,0.678656,0.378159,0.426536,0.366304,0.108848,0.186224,0.074997,0.081712,0.434816,0.120209,0.288635,0.297917,0.165500,1.828734,0.740319,0.391749,0.429734,0.254082,0.756206,0.705450,0.225562,0.453946,0.286230,2.843154,0.768960,0.617406,0.802513,0.470788,1.770751,2.268357,0.537888,3.622384,1.695250,1.742794,1.506061,0.406934,0.909564,0.321718,3.118759,1.678268,0.799827,1.135051,1.661258,4.007903,1.764672,0.535552,1.151104,0.406943
1606508275.536552,109.000000,0.000000,4187.051270,4192.820313,4188.717773,4197.051270,4165.000000,4189.487305,4199.615234,4215.256348,4192.820313,4198.077148,4163.589844,4175.000000,4161.922852,4153.205078,3188.000000,4.000000,,,,0.000000,4.000000,4.000000,4.000000,4.000000,4.000000,4.000000,4.000000,4.000000,4.000000,4.000000,4.000000,4.000000,4.000000,4.000000,100.000000,,,,,,,,,,,,,,,,,,,,,,,,,,,,,,,,,,,,,,,,,,,,,,,,,,,,,,,,,,,,,,,,,,,,,,,,,,,,,,,,,,,,,,,,,,,,,,,,,,,,,,,,,,,,,,,,,
1606508275.544249,110.000000,0.000000,4188.077148,4193.205078,4189.102539,4199.358887,4167.307617,4191.153809,4205.769043,4215.128418,4196.025879,4194.487305,4185.641113,4186.922852,4171.282227,4162.692383,3242.000000,4.000000,,,,0.000000,4.000000,4.000000,4.000000,4.000000,4.000000,4.000000,4.000000,4.000000,4.000000,4.000000,4.000000,4.000000,4.000000,4.000000,100.000000,,,,,,,,,,,,,,,,,,,,,,,,,,,,,,,,,,,,,,,,,,,,,,,,,,,,,,,,,,,,,,,,,,,,,,,,,,,,,,,,,,,,,,,,,,,,,,,,,,,,,,,,,,,,,,,,,
1606508275.551845,111.000000,0.000000,4187.307617,4188.333496,4185.512695,4191.153809,4165.128418,4191.025879,4203.333496,4209.102539,4188.333496,4183.077148,4211.025879,4192.436035,4186.025879,4161.922852,3360.000000,4.000000,,,,0.000000,4.000000,4.000000,4.000000,4.000000,4.000000,4.000000,4.000000,4.000000,4.000000,4.000000,4.000000,4.000000,4.000000,4.000000,100.000000,,,,,,,,,,,,,,,,,,,,,,,,,,,,,,,,,,,,,,,,,,,,,,,,,,,,,,,,,,,,,,,,,,,,,,,,,,,,,,,,,,,,,,,,,,,,,,,,,,,,,,,,,,,,,,,,,
1606508275.559541,112.000000,0.000000,4185.641113,4185.641113,4179.743652,4186.282227,4162.948730,4187.692383,4198.974121,4207.179688,4183.974121,4185.384766,4191.922852,4182.563965,4163.333496,4152.948730,3236.000000,4.000000,,,,0.000000,4.000000,4.000000,4.000000,4.000000,4.000000,4.000000,4.000000,4.000000,4.000000,4.000000,4.000000,4.000000,4.000000,4.000000,100.000000,28.000000,0.000000,0.701701,-0.040527,-0.682007,-0.202087,1.019058,0.103029,-0.012207,-29.459068,-110.209808,21.533531,,,,,,,,,,,,,,,,,,,,,,,,,,,,,,,,,,,,,,,,,,,,,,,,,,,,,,,,,,,,,,,,,,,,,,,,,,,,,,,,,,,,,,,,,,,,,,,,,,,,,
1606508275.567238,113.000000,0.000000,4180.000000,4180.897461,4175.384766,4186.282227,4164.358887,4189.871582,4203.717773,4210.897461,4192.051270,4196.282227,4147.179688,4172.051270,4135.128418,4146.922852,3188.000000,4.000000,,,,0.000000,4.000000,4.000000,4.000000,4.000000,4.000000,4.000000,4.000000,4.000000,4.000000,4.000000,4.000000,4.000000,4.000000,4.000000,100.000000,,,,,,,,,,,,,,,,,,,,,,,,,,,,,,,,,,,,,,,,,,,,,,,,,,,,,,,,,,,,,,,,,,,,,,,,,,,,,,,,,,,,,,,,,,,,,,,,,,,,,,,,,,,,,,,,,
1606508275.575134,114.000000,0.000000,4179.871582,4177.563965,4177.051270,4184.102539,4170.384766,4199.358887,4210.128418,4211.410156,4199.615234,4203.974121,4145.512695,4174.743652,4157.307617,4149.615234,3242.000000,4.000000,,,,0.000000,4.000000,4.000000,4.000000,4.000000,4.000000,4.000000,4.000000,4.000000,4.000000,4.000000,4.000000,4.000000,4.000000,4.000000,100.000000,,,,,,,,,,,,,,,,,,,,,,,,,,,,,,,,,,,,,,,,,,,,,,,,,,,,,,,,,,,,,,,,,,,,,,,,,,,,,,,,,,,,,,,,,,,,,,,,,,,,,,,,,,,,,,,,,
1606508275.583130,115.000000,0.000000,4183.974121,4179.102539,4176.794922,4181.666504,4175.641113,4197.436035,4205.384766,4204.743652,4194.615234,4203.589844,4178.717773,4183.077148,4179.487305,4154.230957,3360.000000,4.000000,,,,0.000000,4.000000,4.000000,4.000000,4.000000,4.000000,4.000000,4.000000,4.000000,4.000000,4.000000,4.000000,4.000000,4.000000,4.000000,100.000000,,,,,,,,,,,,,,,,,,,,,,,,,,,,,,,,,,,,,,,,,,,,,,,,,,,,,,,,,,,,,,,,,,,,,,,,,,,,,,,,,,,,,,,,,,,,,,,,,,,,,,,,,,,,,,,,,
1606508275.591027,116.000000,0.000000,4186.410156,4185.641113,4173.974121,4186.922852,4180.128418,4190.000000,4197.563965,4199.487305,4189.358887,4200.000000,4198.846191,4185.641113,4169.230957,4159.615234,3236.000000,4.000000,,,,0.000000,4.000000,4.000000,4.000000,4.000000,4.000000,4.000000,4.000000,4.000000,4.000000,4.000000,4.000000,4.000000,4.000000,4.000000,100.000000,29.000000,0.000000,0.701549,-0.040710,-0.682495,-0.200928,1.030289,0.098634,-0.013184,-29.758144,-112.153809,21.982147,,,,,,,,,,,,,,,,,,,,,,,,,,,,,,,,,,,,,,,,,,,,,,,,,,,,,,,,,,,,,,,,,,,,,,,,,,,,,,,,,,,,,,,,,,,,,,,,,,,,,
1606508275.598723,117.000000,0.000000,4177.692383,4184.102539,4171.025879,4185.641113,4182.820313,4185.384766,4193.077148,4197.436035,4184.743652,4193.333496,4182.692383,4178.205078,4160.512695,4151.153809,3188.000000,4.000000,,,,0.000000,4.000000,4.000000,4.000000,4.000000,4.000000,4.000000,4.000000,4.000000,4.000000,4.000000,4.000000,4.000000,4.000000,4.000000,100.000000,,,,,,,,,,,,,,,,,,,,,,,,,,,,,,,,,,,,,,,,,,,,,,,,,,,,,,,,,,,,,,,,,,,,,,,,,,,,,,,,,,,,,,,,,,,,,,,,,,,,,,,,,,,,,,,,,
1606508275.606420,118.000000,0.000000,4170.256348,4181.282227,4174.487305,4180.641113,4192.307617,4185.512695,4193.974121,4195.384766,4180.512695,4192.563965,4153.205078,4169.230957,4146.922852,4136.282227,3242.000000,4.000000,,,,0.000000,4.000000,4.000000,4.000000,4.000000,4.000000,4.000000,4.000000,4.000000,4.000000,4.000000,4.000000,4.000000,4.000000,4.000000,100.000000,,,,,,,,,,,,,,,,,,,,,,,,,,,,,,,,,,,,,,,,,,,,,,,,,,,,,,,,,,,,,,,,,,,,,,,,,,,,,,,,,,,,,,,,,,,,,,,,,,,,,,,,,,,,,,,,,
1606508275.614416,119.000000,0.000000,4178.974121,4188.846191,4182.307617,4186.538574,4202.948730,4190.256348,4195.000000,4192.307617,4182.436035,4196.025879,4154.102539,4170.000000,4128.205078,4141.538574,3360.000000,4.000000,,,,0.000000,4.000000,4.000000,4.000000,4.000000,4.000000,4.000000,4.000000,4.000000,4.000000,4.000000,4.000000,4.000000,4.000000,4.000000,100.000000,,,,,,,,,,,,,,,,,,,,,,,,,,,,,,,,,,,,,,,,,,,,,,,,,,,,,,,,,,,,,,,,,,,,,,,,,,,,,,,,,,,,,,,,,,,,,,,,,,,,,,,,,,,,,,,,,
1606508275.622312,120.000000,0.000000,4194.871582,4197.179688,4192.179688,4196.153809,4205.128418,4193.461426,4195.256348,4193.205078,4187.436035,4203.974121,4179.871582,4185.256348,4158.974121,4169.743652,3236.000000,4.000000,,,,0.000000,4.000000,4.000000,4.000000,4.000000,4.000000,4.000000,4.000000,4.000000,4.000000,4.000000,4.000000,4.000000,4.000000,4.000000,100.000000,30.000000,0.000000,0.701663,-0.041504,-0.682617,-0.199951,0.996597,0.112795,-0.039063,-30.057220,-111.555656,21.832609,,,,,,,,,,,,,,,,,,,,,,,,,,,,,,,,,,,,,,,,,,,,,,,,,,,,,,,,,,,,,,,,,,,,,,,,,,,,,,,,,,,,,,,,,,,,,,,,,,,,,
1606508275.630208,121.000000,0.000000,4195.384766,4192.307617,4196.410156,4194.743652,4211.666504,4188.589844,4191.794922,4191.922852,4183.846191,4205.769043,4183.974121,4191.282227,4193.974121,4187.820313,3188.000000,4.000000,,,,0.000000,4.000000,4.000000,4.000000,4.000000,4.000000,4.000000,4.000000,4.000000,4.000000,4.000000,4.000000,4.000000,4.000000,4.000000,100.000000,,,,,,,,,,,,,,,,,,,,,,,,,,,,,,,,,,,,,,,,,,,,,,,,,,,,,,,,,,,,,,,,,,,,,,,,,,,,,,,,,,,,,,,,,,,,,,,,,,,,,,,,,,,,,,,,,
1606508275.638104,122.000000,0.000000,4192.436035,4191.153809,4193.333496,4193.974121,4219.102539,4185.128418,4188.077148,4192.563965,4184.615234,4204.230957,4184.743652,4191.410156,4188.717773,4195.000000,3242.000000,4.000000,,,,0.000000,4.000000,4.000000,4.000000,4.000000,4.000000,4.000000,4.000000,4.000000,4.000000,4.000000,4.000000,4.000000,4.000000,4.000000,100.000000,,,,,,,,,,,,,,,,,,,,,,,,,,,,,,,,,,,,,,,,,,,,,,,,,,,,,,,,,,,,,,,,,,,,,,,,,,,,,,,,,,,,,,,,,,,,,,,,,,,,,,,,,,,,,,,,,
1606508275.646100,123.000000,0.000000,4202.436035,4198.077148,4194.871582,4198.717773,4205.384766,4187.948730,4193.974121,4200.000000,4197.563965,4218.461426,4205.256348,4204.487305,4199.743652,4214.743652,3360.000000,4.000000,,,,0.000000,4.000000,4.000000,4.000000,4.000000,4.000000,4.000000,4.000000,4.000000,4.000000,4.000000,4.000000,4.000000,4.000000,4.000000,100.000000,,,,,,,,,,,,,,,,,,,,,,,,,,,,,,,,,,,,,,,,,,,,,,,,,,,,,,,,,,,,,,,,,,,,,,,,,,,,,,,,,,,,,,,,,,,,,,,,,,,,,,,,,,,,,,,,,
1606508275.653996,124.000000,0.000000,4207.563965,4195.000000,4196.666504,4196.410156,4194.871582,4191.153809,4198.461426,4198.717773,4202.436035,4229.871582,4204.487305,4208.974121,4216.153809,4225.000000,3236.000000,4.000000,,,,0.000000,4.000000,4.000000,4.000000,4.000000,4.000000,4.000000,4.000000,4.000000,4.000000,4.000000,4.000000,4.000000,4.000000,4.000000,100.000000,31.000000,0.000000,0.701567,-0.041504,-0.682983,-0.199036,1.005386,0.140139,-0.027344,-30.655375,-112.153809,20.785839,,,,,,,,,,,,,,,,,,,,,,,,,,,,,,,,1.059799,1.162422,0.554962,0.780486,0.343772,0.705864,0.699269,0.370996,0.324870,0.174965,0.784496,1.037899,0.531149,0.551235,0.158117,0.744581,0.545739,0.302600,0.393202,0.118485,0.297197,0.585159,0.599661,0.478316,0.513963,0.350459,0.164714,0.238555,0.082649,0.087386,0.381471,0.196557,0.344685,0.296659,0.188870,1.671644,0.703792,0.322629,0.418579,0.277325,0.535350,0.513819,0.260103,0.475476,0.349881,2.003586,0.778203,0.602187,0.978366,0.538590,1.379723,2.218310,0.533338,4.346107,1.621356,1.499642,1.635601,0.381494,1.025909,0.310341,2.209391,1.747032,0.779484,1.216294,1.605917,3.209002,2.175073,0.506003,1.268685,0.400045
1606508275.661692,125.000000,0.000000,4196.922852,4181.666504,4187.051270,4183.077148,4201.666504,4188.974121,4193.461426,4189.358887,4193.077148,4224.487305,4191.538574,4198.974121,4206.282227,4217.692383,3188.000000,4.000000,,,,0.000000,4.000000,4.000000,4.000000,4.000000,4.000000,4.000000,4.000000,4.000000,4.000000,4.000000,4.000000,4.000000,4.000000,4.000000,100.000000,,,,,,,,,,,,,,,,,,,,,,,,,,,,,,,,,,,,,,,,,,,,,,,,,,,,,,,,,,,,,,,,,,,,,,,,,,,,,,,,,,,,,,,,,,,,,,,,,,,,,,,,,,,,,,,,,
1606508275.669389,126.000000,0.000000,4185.769043,4172.051270,4176.794922,4173.974121,4197.179688,4183.974121,4193.461426,4189.487305,4188.205078,4220.384766,4198.974121,4196.922852,4202.051270,4214.615234,3242.000000,4.000000,,,,0.000000,4.000000,4.000000,4.000000,4.000000,4.000000,4.000000,4.000000,4.000000,4.000000,4.000000,4.000000,4.000000,4.000000,4.000000,100.000000,,,,,,,,,,,,,,,,,,,,,,,,,,,,,,,,,,,,,,,,,,,,,,,,,,,,,,,,,,,,,,,,,,,,,,,,,,,,,,,,,,,,,,,,,,,,,,,,,,,,,,,,,,,,,,,,,
1606508275.677185,127.000000,0.000000,4182.820313,4171.025879,4177.563965,4176.410156,4198.846191,4186.153809,4194.871582,4192.051270,4187.051270,4217.179688,4213.974121,4201.025879,4201.538574,4216.025879,53.000000,4.000000,,,,0.000000,4.000000,4.000000,4.000000,4.000000,4.000000,4.000000,4.000000,4.000000,4.000000,4.000000,4.000000,4.000000,4.000000,4.000000,100.000000,,,,,,,,,,,,,,,,,,,,,,,,,,,,,,,,,,,,,,,,,,,,,,,,,,,,,,,,,,,,,,,,,,,,,,,,,,,,,,,,,,,,,,,,,,,,,,,,,,,,,,,,,,,,,,,,,
1606508275.685081,0.000000,0.000000,4175.897461,4167.948730,4174.102539,4176.153809,4215.769043,4196.922852,4191.153809,4183.205078,4175.769043,4200.384766,4213.077148,4195.769043,4187.051270,4206.282227,3300.000000,4.000000,,,,0.000000,4.000000,4.000000,4.000000,4.000000,4.000000,4.000000,4.000000,4.000000,4.000000,4.000000,4.000000,4.000000,4.000000,4.000000,100.000000,0.000000,0.000000,0.701521,-0.041565,-0.683044,-0.198975,0.984390,0.136233,-0.029786,-29.459068,-111.406120,20.785839,,,,,,,,,,,,,,,,,,,,,,,,,,,,,,,,,,,,,,,,,,,,,,,,,,,,,,,,,,,,,,,,,,,,,,,,,,,,,,,,,,,,,,,,,,,,,,,,,,,,,
1606508275.692977,1.000000,0.000000,4168.974121,4167.051270,4167.820313,4175.128418,4210.256348,4206.282227,4199.871582,4183.717773,4178.717773,4203.205078,4190.641113,4191.153809,4195.641113,4199.230957,3448.000000,4.000000,,,,0.000000,4.000000,4.000000,4.000000,4.000000,4.000000,4.000000,4.000000,4.000000,4.000000,4.000000,4.000000,4.000000,4.000000,4.000000,100.000000,,,,,,,,,,,,,,,,,,,,,,,,,,,,,,,,,,,,,,,,,,,,,,,,,,,,,,,,,,,,,,,,,,,,,,,,,,,,,,,,,,,,,,,,,,,,,,,,,,,,,,,,,,,,,,,,,
1606508275.700873,2.000000,0.000000,4177.563965,4176.794922,4177.436035,4180.128418,4186.153809,4202.692383,4214.615234,4198.205078,4204.615234,4233.333496,4178.589844,4199.615234,4217.436035,4210.256348,3378.000000,4.000000,,,,0.000000,4.000000,4.000000,4.000000,4.000000,4.000000,4.000000,4.000000,4.000000,4.000000,4.000000,4.000000,4.000000,4.000000,4.000000,100.000000,,,,,,,,,,,,,,,,,,,,,,,,,,,,,,,,,,,,,,,,,,,,,,,,,,,,,,,,,,,,,,,,,,,,,,,,,,,,,,,,,,,,,,,,,,,,,,,,,,,,,,,,,,,,,,,,,
1606508275.708669,3.000000,0.000000,4195.897461,4187.436035,4195.128418,4189.230957,4187.820313,4198.717773,4215.512695,4207.307617,4222.820313,4258.077148,4208.077148,4222.436035,4224.743652,4230.641113,3329.000000,4.000000,,,,0.000000,4.000000,4.000000,4.000000,4.000000,4.000000,4.000000,4.000000,4.000000,4.000000,4.000000,4.000000,4.000000,4.000000,4.000000,100.000000,,,,,,,,,,,,,,,,,,,,,,,,,,,,,,,,,,,,,,,,,,,,,,,,,,,,,,,,,,,,,,,,,,,,,,,,,,,,,,,,,,,,,,,,,,,,,,,,,,,,,,,,,,,,,,,,,
1606508275.716366,4.000000,0.000000,4195.000000,4183.333496,4193.589844,4188.589844,4200.897461,4193.461426,4203.974121,4201.922852,4208.077148,4248.846191,4239.230957,4229.743652,4223.205078,4231.410156,3057.000000,4.000000,,,,0.000000,4.000000,4.000000,4.000000,4.000000,4.000000,4.000000,4.000000,4.000000,4.000000,4.000000,4.000000,4.000000,4.000000,4.000000,100.000000,1.000000,0.000000,0.701570,-0.042358,-0.682678,-0.199890,1.001480,0.135744,-0.031739,-29.608606,-110.060272,22.580301,,,,,,,,,,,,,,,,,,,,,,,,,,,,,,,,,,,,,,,,,,,,,,,,,,,,,,,,,,,,,,,,,,,,,,,,,,,,,,,,,,,,,,,,,,,,,,,,,,,,,
1606508275.724262,5.000000,0.000000,4184.358887,4177.436035,4182.307617,4182.307617,4199.487305,4185.769043,4196.282227,4191.538574,4188.205078,4222.436035,4231.538574,4212.820313,4221.666504,4214.358887,3229.000000,4.000000,,,,0.000000,4.000000,4.000000,4.000000,4.000000,4.000000,4.000000,4.000000,4.000000,4.000000,4.000000,4.000000,4.000000,4.000000,4.000000,100.000000,,,,,,,,,,,,,,,,,,,,,,,,,,,,,,,,,,,,,,,,,,,,,,,,,,,,,,,,,,,,,,,,,,,,,,,,,,,,,,,,,,,,,,,,,,,,,,,,,,,,,,,,,,,,,,,,,
1606508275.731958,6.000000,0.000000,4181.794922,4176.794922,4176.666504,4177.051270,4189.358887,4183.205078,4198.461426,4188.846191,4190.897461,4216.666504,4203.974121,4201.025879,4204.102539,4203.333496,2874.000000,4.000000,,,,0.000000,4.000000,4.000000,4.000000,4.000000,4.000000,4.000000,4.000000,4.000000,4.000000,4.000000,4.000000,4.000000,4.000000,4.000000,100.000000,,,,,,,,,,,,,,,,,,,,,,,,,,,,,,,,,,,,,,,,,,,,,,,,,,,,,,,,,,,,,,,,,,,,,,,,,,,,,,,,,,,,,,,,,,,,,,,,,,,,,,,,,,,,,,,,,
1606508275.739554,7.000000,0.000000,4183.205078,4177.692383,4175.128418,4178.205078,4185.897461,4188.077148,4208.461426,4203.846191,4205.000000,4233.205078,4187.436035,4203.717773,4180.769043,4203.974121,2513.000000,4.000000,,,,0.000000,4.000000,4.000000,4.000000,4.000000,4.000000,4.000000,4.000000,4.000000,4.000000,4.000000,4.000000,4.000000,4.000000,4.000000,100.000000,,,,,,,,,,,,,,,,,,,,,,,,,,,,,,,,,,,,,,,,,,,,,,,,,,,,,,,,,,,,,,,,,,,,,,,,,,,,,,,,,,,,,,,,,,,,,,,,,,,,,,,,,,,,,,,,,
1606508275.747250,8.000000,0.000000,4180.128418,4176.410156,4171.410156,4181.153809,4192.948730,4190.769043,4210.641113,4216.153809,4203.846191,4227.307617,4189.230957,4202.692383,4183.077148,4197.820313,3167.000000,4.000000,,,,0.000000,4.000000,4.000000,4.000000,4.000000,4.000000,4.000000,4.000000,4.000000,4.000000,4.000000,4.000000,4.000000,4.000000,4.000000,100.000000,2.000000,0.000000,0.701953,-0.043335,-0.681702,-0.201660,0.981949,0.140139,-0.034180,-30.206760,-110.957504,22.281223,,,,,,,,,,,,,,,,,,,,,,,,,,,,,,,,,,,,,,,,,,,,,,,,,,,,,,,,,,,,,,,,,,,,,,,,,,,,,,,,,,,,,,,,,,,,,,,,,,,,,
1606508275.754947,9.000000,0.000000,4175.384766,4173.333496,4168.974121,4177.307617,4201.153809,4190.641113,4206.666504,4212.307617,4195.128418,4205.512695,4203.717773,4198.974121,4202.563965,4188.589844,3473.000000,4.000000,,,,0.000000,4.000000,4.000000,4.000000,4.000000,4.000000,4.000000,4.000000,4.000000,4.000000,4.000000,4.000000,4.000000,4.000000,4.000000,100.000000,,,,,,,,,,,,,,,,,,,,,,,,,,,,,,,,,,,,,,,,,,,,,,,,,,,,,,,,,,,,,,,,,,,,,,,,,,,,,,,,,,,,,,,,,,,,,,,,,,,,,,,,,,,,,,,,,
1606508275.762643,10.000000,0.000000,4177.820313,4175.000000,4171.794922,4174.102539,4201.282227,4195.384766,4209.230957,4210.000000,4198.333496,4208.846191,4197.948730,4195.897461,4201.538574,4188.461426,3270.000000,4.000000,,,,0.000000,4.000000,4.000000,4.000000,4.000000,4.000000,4.000000,4.000000,4.000000,4.000000,4.000000,4.000000,4.000000,4.000000,4.000000,100.000000,,,,,,,,,,,,,,,,,,,,,,,,,,,,,,,,,,,,,,,,,,,,,,,,,,,,,,,,,,,,,,,,,,,,,,,,,,,,,,,,,,,,,,,,,,,,,,,,,,,,,,,,,,,,,,,,,
1606508275.770239,11.000000,0.000000,4183.205078,4181.666504,4178.846191,4181.282227,4199.102539,4198.846191,4207.820313,4207.179688,4200.641113,4218.205078,4187.692383,4198.205078,4188.846191,4194.102539,3373.000000,4.000000,,,,0.000000,4.000000,4.000000,4.000000,4.000000,4.000000,4.000000,4.000000,4.000000,4.000000,4.000000,4.000000,4.000000,4.000000,4.000000,100.000000,,,,,,,,,,,,,,,,,,,,,,,,,,,,,,,,,,,,,,,,,,,,,,,,,,,,,,,,,,,,,,,,,,,,,,,,,,,,,,,,,,,,,,,,,,,,,,,,,,,,,,,,,,,,,,,,,
1606508275.777935,12.000000,0.000000,4186.282227,4185.256348,4189.230957,4188.846191,4198.077148,4197.692383,4197.436035,4194.230957,4192.051270,4210.000000,4200.128418,4206.794922,4192.820313,4199.487305,3236.000000,4.000000,,,,0.000000,4.000000,4.000000,4.000000,4.000000,4.000000,4.000000,4.000000,4.000000,4.000000,4.000000,4.000000,4.000000,4.000000,4.000000,100.000000,3.000000,0.000000,0.702361,-0.044556,-0.680603,-0.203674,0.996597,0.152834,-0.038575,-29.010452,-112.153809,23.477531,,,,,,,,,,,,,,,,,,,,,,,,,,,,,,,,1.178663,1.561240,0.553592,0.790730,0.347912,0.667994,0.949259,0.384821,0.330719,0.186000,0.958413,1.266834,0.558280,0.548454,0.178065,0.588492,0.758012,0.378873,0.405840,0.115254,0.406164,0.666817,0.531954,0.611577,0.604096,0.345421,0.234155,0.303704,0.090987,0.090819,0.346380,0.301549,0.441694,0.273342,0.218240,1.560312,0.665982,0.292064,0.387689,0.322415,0.416052,0.428231,0.338663,0.474029,0.440236,1.371406,0.976852,0.633651,1.109926,0.655856,1.160282,2.172709,0.544631,5.050703,1.593969,1.445788,1.843429,0.344262,1.081728,0.312406,1.571998,1.921437,0.794883,1.276404,1.558718,2.920897,2.912245,0.456348,1.321794,0.416872
1606508275.785632,13.000000,0.000000,4195.769043,4186.794922,4193.974121,4188.717773,4199.102539,4194.615234,4192.563965,4189.871582,4189.487305,4205.641113,4206.025879,4211.153809,4200.256348,4208.717773,3198.000000,4.000000,,,,0.000000,4.000000,4.000000,4.000000,4.000000,4.000000,4.000000,4.000000,4.000000,4.000000,4.000000,4.000000,4.000000,4.000000,4.000000,100.000000,,,,,,,,,,,,,,,,,,,,,,,,,,,,,,,,,,,,,,,,,,,,,,,,,,,,,,,,,,,,,,,,,,,,,,,,,,,,,,,,,,,,,,,,,,,,,,,,,,,,,,,,,,,,,,,,,
1606508275.793328,14.000000,0.000000,4211.282227,4191.153809,4197.179688,4194.102539,4196.922852,4195.769043,4197.692383,4200.641113,4199.743652,4221.666504,4197.436035,4216.282227,4194.358887,4223.846191,3270.000000,4.000000,,,,0.000000,4.000000,4.000000,4.000000,4.000000,4.000000,4.000000,4.000000,4.000000,4.000000,4.000000,4.000000,4.000000,4.000000,4.000000,100.000000,,,,,,,,,,,,,,,,,,,,,,,,,,,,,,,,,,,,,,,,,,,,,,,,,,,,,,,,,,,,,,,,,,,,,,,,,,,,,,,,,,,,,,,,,,,,,,,,,,,,,,,,,,,,,,,,,
1606508275.801124,15.000000,0.000000,4211.922852,4191.922852,4200.641113,4199.743652,4199.102539,4197.692383,4194.615234,4199.615234,4194.743652,4225.512695,4203.205078,4221.794922,4193.205078,4226.282227,3373.000000,4.000000,,,,0.000000,4.000000,4.000000,4.000000,4.000000,4.000000,4.000000,4.000000,4.000000,4.000000,4.000000,4.000000,4.000000,4.000000,4.000000,100.000000,,,,,,,,,,,,,,,,,,,,,,,,,,,,,,,,,,,,,,,,,,,,,,,,,,,,,,,,,,,,,,,,,,,,,,,,,,,,,,,,,,,,,,,,,,,,,,,,,,,,,,,,,,,,,,,,,
1606508275.808821,16.000000,0.000000,4205.256348,4194.102539,4200.384766,4198.846191,4213.205078,4196.538574,4185.897461,4188.846191,4181.666504,4205.769043,4224.871582,4225.256348,4211.282227,4221.153809,0.000000,4.000000,,,,0.000000,4.000000,4.000000,4.000000,4.000000,4.000000,4.000000,4.000000,4.000000,4.000000,4.000000,4.000000,4.000000,4.000000,4.000000,100.000000,4.000000,0.000000,0.702882,-0.045837,-0.679077,-0.206665,0.992691,0.150881,-0.015137,-30.356298,-111.555656,21.383993,,,,,,,,,,,,,,,,,,,,,,,,,,,,,,,,,,,,,,,,,,,,,,,,,,,,,,,,,,,,,,,,,,,,,,,,,,,,,,,,,,,,,,,,,,,,,,,,,,,,,
1606508275.816517,17.000000,0.000000,4213.333496,4199.615234,4202.948730,4199.615234,4210.641113,4194.615234,4193.333496,4191.794922,4193.077148,4201.025879,4227.820313,4231.025879,4224.743652,4229.358887,0.000000,4.000000,,,,0.000000,4.000000,4.000000,4.000000,4.000000,4.000000,4.000000,4.000000,4.000000,4.000000,4.000000,4.000000,4.000000,4.000000,4.000000,100.000000,,,,,,,,,,,,,,,,,,,,,,,,,,,,,,,,,,,,,,,,,,,,,,,,,,,,,,,,,,,,,,,,,,,,,,,,,,,,,,,,,,,,,,,,,,,,,,,,,,,,,,,,,,,,,,,,,
1606508275.824413,18.000000,0.000000,4223.846191,4203.077148,4210.128418,4205.641113,4197.948730,4195.256348,4200.897461,4203.333496,4208.205078,4218.461426,4215.641113,4235.256348,4214.102539,4238.974121,0.000000,4.000000,,,,0.000000,4.000000,4.000000,4.000000,4.000000,4.000000,4.000000,4.000000,4.000000,4.000000,4.000000,4.000000,4.000000,4.000000,4.000000,100.000000,,,,,,,,,,,,,,,,,,,,,,,,,,,,,,,,,,,,,,,,,,,,,,,,,,,,,,,,,,,,,,,,,,,,,,,,,,,,,,,,,,,,,,,,,,,,,,,,,,,,,,,,,,,,,,,,,
1606508275.832209,19.000000,0.000000,4214.743652,4198.717773,4206.025879,4200.769043,4208.333496,4195.128418,4191.410156,4200.128418,4194.743652,4213.589844,4200.897461,4222.179688,4202.948730,4226.025879,0.000000,4.000000,,,,0.000000,4.000000,4.000000,4.000000,4.000000,4.000000,4.000000,4.000000,4.000000,4.000000,4.000000,4.000000,4.000000,4.000000,4.000000,100.000000,,,,,,,,,,,,,,,,,,,,,,,,,,,,,,,,,,,,,,,,,,,,,,,,,,,,,,,,,,,,,,,,,,,,,,,,,,,,,,,,,,,,,,,,,,,,,,,,,,,,,,,,,,,,,,,,,
1606508275.839906,20.000000,0.000000,4207.436035,4197.563965,4200.256348,4195.512695,4222.692383,4196.666504,4192.820313,4190.512695,4191.666504,4199.871582,4203.974121,4214.871582,4208.846191,4219.102539,0.000000,4.000000,,,,0.000000,4.000000,4.000000,4.000000,4.000000,4.000000,4.000000,4.000000,4.000000,4.000000,4.000000,4.000000,4.000000,4.000000,4.000000,100.000000,5.000000,0.000000,0.703771,-0.048401,-0.677002,-0.209839,0.994644,0.141115,-0.011719,-30.655375,-112.602425,21.533531,,,,,,,,,,,,,,,,,,,,,,,,,,,,,,,,,,,,,,,,,,,,,,,,,,,,,,,,,,,,,,,,,,,,,,,,,,,,,,,,,,,,,,,,,,,,,,,,,,,,,
1606508275.847602,21.000000,0.000000,4211.025879,4197.436035,4204.358887,4196.794922,4213.717773,4199.487305,4208.589844,4194.487305,4209.102539,4209.230957,4216.922852,4220.897461,4200.256348,4230.128418,0.000000,4.000000,,,,0.000000,4.000000,4.000000,4.000000,4.000000,4.000000,4.000000,4.000000,4.000000,4.000000,4.000000,4.000000,4.000000,4.000000,4.000000,100.000000,,,,,,,,,,,,,,,,,,,,,,,,,,,,,,,,,,,,,,,,,,,,,,,,,,,,,,,,,,,,,,,,,,,,,,,,,,,,,,,,,,,,,,,,,,,,,,,,,,,,,,,,,,,,,,,,,
1606508275.855298,22.000000,0.000000,4209.358887,4192.051270,4206.666504,4193.461426,4210.641113,4199.230957,4209.871582,4204.358887,4210.512695,4216.410156,4221.794922,4222.692383,4199.871582,4234.358887,0.000000,4.000000,,,,0.000000,4.000000,4.000000,4.000000,4.000000,4.000000,4.000000,4.000000,4.000000,4.000000,4.000000,4.000000,4.000000,4.000000,4.000000,100.000000,,,,,,,,,,,,,,,,,,,,,,,,,,,,,,,,,,,,,,,,,,,,,,,,,,,,,,,,,,,,,,,,,,,,,,,,,,,,,,,,,,,,,,,,,,,,,,,,,,,,,,,,,,,,,,,,,
1606508275.863294,23.000000,0.000000,4201.666504,4187.307617,4202.436035,4186.282227,4216.025879,4195.384766,4201.025879,4203.974121,4197.692383,4200.897461,4215.000000,4219.230957,4217.563965,4226.794922,0.000000,4.000000,,,,0.000000,4.000000,4.000000,4.000000,4.000000,4.000000,4.000000,4.000000,4.000000,4.000000,4.000000,4.000000,4.000000,4.000000,4.000000,100.000000,,,,,,,,,,,,,,,,,,,,,,,,,,,,,,,,,,,,,,,,,,,,,,,,,,,,,,,,,,,,,,,,,,,,,,,,,,,,,,,,,,,,,,,,,,,,,,,,,,,,,,,,,,,,,,,,,
1606508275.871190,24.000000,0.000000,4196.922852,4186.666504,4201.794922,4185.128418,4214.615234,4194.871582,4199.615234,4192.179688,4193.205078,4192.948730,4199.743652,4216.794922,4214.102539,4221.410156,0.000000,4.000000,,,,0.000000,4.000000,4.000000,4.000000,4.000000,4.000000,4.000000,4.000000,4.000000,4.000000,4.000000,4.000000,4.000000,4.000000,4.000000,100.000000,6.000000,0.000000,0.704891,-0.051636,-0.674622,-0.212952,0.998062,0.129397,-0.003418,-30.057220,-112.751968,24.075686,,,,,,,,,,,,,,,,,,,,,,,,,,,,,,,,,,,,,,,,,,,,,,,,,,,,,,,,,,,,,,,,,,,,,,,,,,,,,,,,,,,,,,,,,,,,,,,,,,,,,
1606508275.878886,25.000000,0.000000,4192.948730,4182.436035,4201.538574,4181.666504,4215.641113,4195.769043,4198.846191,4179.871582,4191.282227,4196.153809,4190.512695,4213.333496,4195.128418,4217.563965,0.000000,4.000000,,,,0.000000,4.000000,4.000000,4.000000,4.000000,4.000000,4.000000,4.000000,4.000000,4.000000,4.000000,4.000000,4.000000,4.000000,4.000000,100.000000,,,,,,,,,,,,,,,,,,,,,,,,,,,,,,,,,,,,,,,,,,,,,,,,,,,,,,,,,,,,,,,,,,,,,,,,,,,,,,,,,,,,,,,,,,,,,,,,,,,,,,,,,,,,,,,,,
1606508275.886583,26.000000,0.000000,4188.717773,4176.538574,4198.589844,4177.051270,4213.461426,4194.102539,4198.205078,4175.897461,4185.769043,4186.794922,4197.436035,4208.205078,4195.384766,4215.256348,0.000000,4.000000,,,,0.000000,4.000000,4.000000,4.000000,4.000000,4.000000,4.000000,4.000000,4.000000,4.000000,4.000000,4.000000,4.000000,4.000000,4.000000,100.000000,,,,,,,,,,,,,,,,,,,,,,,,,,,,,,,,,,,,,,,,,,,,,,,,,,,,,,,,,,,,,,,,,,,,,,,,,,,,,,,,,,,,,,,,,,,,,,,,,,,,,,,,,,,,,,,,,
1606508275.894579,27.000000,0.000000,4181.922852,4172.563965,4191.794922,4177.307617,4203.589844,4191.282227,4197.436035,4174.102539,4183.846191,4171.153809,4204.230957,4202.307617,4205.128418,4208.461426,0.000000,4.000000,,,,0.000000,4.000000,4.000000,4.000000,4.000000,4.000000,4.000000,4.000000,4.000000,4.000000,4.000000,4.000000,4.000000,4.000000,4.000000,100.000000,,,,,,,,,,,,,,,,,,,,,,,,,,,,,,,,,,,,,,,,,,,,,,,,,,,,,,,,,,,,,,,,,,,,,,,,,,,,,,,,,,,,,,,,,,,,,,,,,,,,,,,,,,,,,,,,,
1606508275.902475,28.000000,0.000000,4174.358887,4173.333496,4183.333496,4175.256348,4201.025879,4187.179688,4190.384766,4168.974121,4183.077148,4165.256348,4198.333496,4196.410156,4182.051270,4195.000000,0.000000,4.000000,,,,0.000000,4.000000,4.000000,4.000000,4.000000,4.000000,4.000000,4.000000,4.000000,4.000000,4.000000,4.000000,4.000000,4.000000,4.000000,100.000000,7.000000,0.000000,0.706055,-0.055542,-0.672119,-0.216003,1.012711,0.140627,0.013184,-30.057220,-112.303352,24.075686,,,,,,,,,,,,,,,,,,,,,,,,,,,,,,,,1.627831,2.109408,0.564297,0.744517,0.344445,0.694280,1.243175,0.399607,0.316939,0.195482,1.228709,1.632476,0.586449,0.500575,0.201014,0.512477,1.087694,0.455677,0.386935,0.114051,0.600574,0.767106,0.494232,0.749579,0.675981,0.362751,0.310239,0.370018,0.099020,0.092233,0.343775,0.416385,0.558434,0.237065,0.245732,1.471963,0.640107,0.289763,0.347044,0.372311,0.440316,0.441210,0.437261,0.458635,0.529412,1.081331,1.299960,0.693944,1.183820,0.784724,1.175569,2.150350,0.579396,5.607718,1.610012,1.642763,2.116272,0.327191,1.063248,0.325283,1.388537,2.212250,0.846976,1.317623,1.516950,3.440368,3.913934,0.423424,1.295240,0.447388
1606508275.910371,29.000000,0.000000,4176.666504,4178.846191,4182.948730,4176.025879,4206.794922,4184.871582,4185.641113,4168.846191,4182.307617,4170.769043,4189.743652,4193.461426,4161.538574,4191.410156,0.000000,4.000000,,,,0.000000,4.000000,4.000000,4.000000,4.000000,4.000000,4.000000,4.000000,4.000000,4.000000,4.000000,4.000000,4.000000,4.000000,4.000000,100.000000,,,,,,,,,,,,,,,,,,,,,,,,,,,,,,,,,,,,,,,,,,,,,,,,,,,,,,,,,,,,,,,,,,,,,,,,,,,,,,,,,,,,,,,,,,,,,,,,,,,,,,,,,,,,,,,,,
1606508275.918067,30.000000,0.000000,4182.436035,4183.974121,4189.102539,4183.717773,4207.820313,4189.743652,4193.717773,4174.871582,4184.487305,4172.563965,4179.487305,4193.461426,4182.563965,4196.282227,0.000000,4.000000,,,,0.000000,4.000000,4.000000,4.000000,4.000000,4.000000,4.000000,4.000000,4.000000,4.000000,4.000000,4.000000,4.000000,4.000000,4.000000,100.000000,,,,,,,,,,,,,,,,,,,,,,,,,,,,,,,,,,,,,,,,,,,,,,,,,,,,,,,,,,,,,,,,,,,,,,,,,,,,,,,,,,,,,,,,,,,,,,,,,,,,,,,,,,,,,,,,,
1606508275.926063,31.000000,0.000000,4186.922852,4192.179688,4195.384766,4193.333496,4207.563965,4196.538574,4203.846191,4179.743652,4193.589844,4175.128418,4175.384766,4196.794922,4202.436035,4194.871582,0.000000,4.000000,,,,0.000000,4.000000,4.000000,4.000000,4.000000,4.000000,4.000000,4.000000,4.000000,4.000000,4.000000,4.000000,4.000000,4.000000,4.000000,100.000000,,,,,,,,,,,,,,,,,,,,,,,,,,,,,,,,,,,,,,,,,,,,,,,,,,,,,,,,,,,,,,,,,,,,,,,,,,,,,,,,,,,,,,,,,,,,,,,,,,,,,,,,,,,,,,,,,
1606508275.933960,32.000000,0.000000,4190.384766,4200.256348,4196.922852,4195.641113,4211.410156,4194.230957,4200.512695,4180.256348,4194.615234,4174.871582,4192.948730,4200.769043,4194.358887,4190.769043,0.000000,4.000000,,,,0.000000,4.000000,4.000000,4.000000,4.000000,4.000000,4.000000,4.000000,4.000000,4.000000,4.000000,4.000000,4.000000,4.000000,4.000000,100.000000,8.000000,0.000000,0.707283,-0.059509,-0.669556,-0.218872,1.000015,0.131838,0.034180,-29.608606,-112.751968,23.627069,,,,,,,,,,,,,,,,,,,,,,,,,,,,,,,,,,,,,,,,,,,,,,,,,,,,,,,,,,,,,,,,,,,,,,,,,,,,,,,,,,,,,,,,,,,,,,,,,,,,,
1606508275.941656,33.000000,0.000000,4193.077148,4201.025879,4199.102539,4196.025879,4217.307617,4195.000000,4198.077148,4183.077148,4190.897461,4175.000000,4213.461426,4207.692383,4194.102539,4197.179688,0.000000,4.000000,,,,0.000000,4.000000,4.000000,4.000000,4.000000,4.000000,4.000000,4.000000,4.000000,4.000000,4.000000,4.000000,4.000000,4.000000,4.000000,100.000000,,,,,,,,,,,,,,,,,,,,,,,,,,,,,,,,,,,,,,,,,,,,,,,,,,,,,,,,,,,,,,,,,,,,,,,,,,,,,,,,,,,,,,,,,,,,,,,,,,,,,,,,,,,,,,,,,
1606508275.949352,34.000000,0.000000,4199.487305,4199.230957,4201.666504,4198.461426,4217.820313,4204.615234,4205.769043,4190.128418,4196.282227,4183.846191,4206.025879,4212.051270,4205.384766,4208.461426,0.000000,4.000000,,,,0.000000,4.000000,4.000000,4.000000,4.000000,4.000000,4.000000,4.000000,4.000000,4.000000,4.000000,4.000000,4.000000,4.000000,4.000000,100.000000,,,,,,,,,,,,,,,,,,,,,,,,,,,,,,,,,,,,,,,,,,,,,,,,,,,,,,,,,,,,,,,,,,,,,,,,,,,,,,,,,,,,,,,,,,,,,,,,,,,,,,,,,,,,,,,,,
1606508275.957348,35.000000,0.000000,4205.128418,4201.794922,4202.563965,4201.922852,4221.025879,4210.000000,4206.538574,4194.102539,4203.205078,4193.461426,4182.307617,4206.153809,4201.153809,4212.436035,0.000000,4.000000,,,,0.000000,4.000000,4.000000,4.000000,4.000000,4.000000,4.000000,4.000000,4.000000,4.000000,4.000000,4.000000,4.000000,4.000000,4.000000,100.000000,,,,,,,,,,,,,,,,,,,,,,,,,,,,,,,,,,,,,,,,,,,,,,,,,,,,,,,,,,,,,,,,,,,,,,,,,,,,,,,,,,,,,,,,,,,,,,,,,,,,,,,,,,,,,,,,,
1606508275.965045,36.000000,0.000000,4192.179688,4196.538574,4196.538574,4196.282227,4225.256348,4202.563965,4200.769043,4189.743652,4197.179688,4188.205078,4170.000000,4194.487305,4178.589844,4201.922852,0.000000,4.000000,,,,0.000000,4.000000,4.000000,4.000000,4.000000,4.000000,4.000000,4.000000,4.000000,4.000000,4.000000,4.000000,4.000000,4.000000,4.000000,100.000000,9.000000,0.000000,0.707873,-0.061462,-0.668274,-0.220337,1.012223,0.130861,0.041505,-29.459068,-113.649193,24.225224,,,,,,,,,,,,,,,,,,,,,,,,,,,,,,,,,,,,,,,,,,,,,,,,,,,,,,,,,,,,,,,,,,,,,,,,,,,,,,,,,,,,,,,,,,,,,,,,,,,,,
1606508275.972741,37.000000,0.000000,4196.410156,4199.358887,4203.077148,4200.897461,4217.563965,4198.589844,4208.717773,4199.102539,4204.230957,4190.897461,4207.051270,4211.538574,4194.487305,4214.871582,0.000000,4.000000,,,,0.000000,4.000000,4.000000,4.000000,4.000000,4.000000,4.000000,4.000000,4.000000,4.000000,4.000000,4.000000,4.000000,4.000000,4.000000,100.000000,,,,,,,,,,,,,,,,,,,,,,,,,,,,,,,,,,,,,,,,,,,,,,,,,,,,,,,,,,,,,,,,,,,,,,,,,,,,,,,,,,,,,,,,,,,,,,,,,,,,,,,,,,,,,,,,,
1606508275.980437,38.000000,0.000000,4213.717773,4207.820313,4214.102539,4211.922852,4215.512695,4202.692383,4212.307617,4210.128418,4212.179688,4193.846191,4250.128418,4232.436035,4232.563965,4239.743652,0.000000,4.000000,,,,0.000000,4.000000,4.000000,4.000000,4.000000,4.000000,4.000000,4.000000,4.000000,4.000000,4.000000,4.000000,4.000000,4.000000,4.000000,100.000000,,,,,,,,,,,,,,,,,,,,,,,,,,,,,,,,,,,,,,,,,,,,,,,,,,,,,,,,,,,,,,,,,,,,,,,,,,,,,,,,,,,,,,,,,,,,,,,,,,,,,,,,,,,,,,,,,
1606508275.988033,39.000000,0.000000,4209.871582,4203.974121,4212.948730,4206.666504,4233.205078,4204.743652,4204.230957,4201.922852,4202.051270,4186.538574,4226.922852,4222.307617,4227.820313,4235.128418,0.000000,4.000000,,,,0.000000,4.000000,4.000000,4.000000,4.000000,4.000000,4.000000,4.000000,4.000000,4.000000,4.000000,4.000000,4.000000,4.000000,4.000000,100.000000,,,,,,,,,,,,,,,,,,,,,,,,,,,,,,,,,,,,,,,,,,,,,,,,,,,,,,,,,,,,,,,,,,,,,,,,,,,,,,,,,,,,,,,,,,,,,,,,,,,,,,,,,,,,,,,,,
1606508275.995729,40.000000,0.000000,4207.307617,4200.256348,4214.615234,4203.077148,4231.153809,4205.769043,4209.615234,4201.410156,4206.025879,4197.307617,4188.205078,4214.743652,4206.538574,4230.000000,0.000000,4.000000,,,,0.000000,4.000000,4.000000,4.000000,4.000000,4.000000,4.000000,4.000000,4.000000,4.000000,4.000000,4.000000,4.000000,4.000000,4.000000,100.000000,10.000000,0.000000,0.709011,-0.064636,-0.665955,-0.222778,1.007828,0.127932,0.038087,-27.963684,-112.751968,24.524300,,,,,,,,,,,,,,,,,,,,,,,,,,,,,,,,,,,,,,,,,,,,,,,,,,,,,,,,,,,,,,,,,,,,,,,,,,,,,,,,,,,,,,,,,,,,,,,,,,,,,
1606508276.003425,41.000000,0.000000,4219.487305,4206.538574,4218.717773,4211.410156,4210.512695,4208.974121,4218.461426,4213.717773,4223.974121,4214.358887,4204.230957,4225.897461,4218.205078,4246.922852,0.000000,4.000000,,,,0.000000,4.000000,4.000000,4.000000,4.000000,4.000000,4.000000,4.000000,4.000000,4.000000,4.000000,4.000000,4.000000,4.000000,4.000000,100.000000,,,,,,,,,,,,,,,,,,,,,,,,,,,,,,,,,,,,,,,,,,,,,,,,,,,,,,,,,,,,,,,,,,,,,,,,,,,,,,,,,,,,,,,,,,,,,,,,,,,,,,,,,,,,,,,,,
1606508276.011122,42.000000,0.000000,4217.307617,4204.615234,4214.487305,4209.615234,4211.538574,4206.794922,4211.922852,4207.820313,4217.436035,4204.743652,4227.051270,4227.948730,4227.820313,4251.666504,0.000000,4.000000,,,,0.000000,4.000000,4.000000,4.000000,4.000000,4.000000,4.000000,4.000000,4.000000,4.000000,4.000000,4.000000,4.000000,4.000000,4.000000,100.000000,,,,,,,,,,,,,,,,,,,,,,,,,,,,,,,,,,,,,,,,,,,,,,,,,,,,,,,,,,,,,,,,,,,,,,,,,,,,,,,,,,,,,,,,,,,,,,,,,,,,,,,,,,,,,,,,,
1606508276.018918,43.000000,0.000000,4203.846191,4195.897461,4209.487305,4199.230957,4217.436035,4203.846191,4207.436035,4194.358887,4203.589844,4191.922852,4210.384766,4220.256348,4211.538574,4238.589844,0.000000,4.000000,,,,0.000000,4.000000,4.000000,4.000000,4.000000,4.000000,4.000000,4.000000,4.000000,4.000000,4.000000,4.000000,4.000000,4.000000,4.000000,100.000000,,,,,,,,,,,,,,,,,,,,,,,,,,,,,,,,,,,,,,,,,,,,,,,,,,,,,,,,,,,,,,,,,,,,,,,,,,,,,,,,,,,,,,,,,,,,,,,,,,,,,,,,,,,,,,,,,
1606508276.026614,44.000000,0.000000,4206.025879,4196.410156,4212.692383,4199.487305,4208.205078,4203.077148,4212.563965,4196.153809,4207.820313,4198.461426,4216.025879,4223.589844,4215.256348,4238.333496,0.000000,4.000000,,,,0.000000,4.000000,4.000000,4.000000,4.000000,4.000000,4.000000,4.000000,4.000000,4.000000,4.000000,4.000000,4.000000,4.000000,4.000000,100.000000,11.000000,0.000000,0.709932,-0.067749,-0.663818,-0.225281,1.010269,0.129397,0.067384,-29.608606,-112.751968,22.879377,,,,,,,,,,,,,,,,,,,,,,,,,,,,,,,,2.370406,2.701806,0.614727,0.658557,0.330297,0.796927,1.530437,0.428250,0.289724,0.198912,1.580594,2.086448,0.640050,0.426472,0.216728,0.529406,1.474888,0.522858,0.346999,0.112825,0.898903,0.868999,0.489657,0.859760,0.712201,0.398003,0.385366,0.426826,0.106672,0.093090,0.381466,0.515204,0.658197,0.202126,0.264212,1.376148,0.645432,0.296636,0.314075,0.408397,0.576063,0.520767,0.531245,0.449394,0.590654,1.093632,1.648782,0.777898,1.212143,0.881258,1.390271,2.144446,0.635976,5.922488,1.646278,2.027679,2.402732,0.366274,0.980682,0.341417,1.677721,2.561299,0.940139,1.367349,1.471592,4.770308,4.971252,0.475428,1.197375,0.475015
1606508276.034310,45.000000,0.000000,4210.769043,4197.692383,4212.820313,4198.974121,4203.589844,4200.897461,4212.948730,4201.538574,4207.307617,4196.282227,4244.230957,4228.589844,4223.974121,4240.769043,0.000000,4.000000,,,,0.000000,4.000000,4.000000,4.000000,4.000000,4.000000,4.000000,4.000000,4.000000,4.000000,4.000000,4.000000,4.000000,4.000000,4.000000,100.000000,,,,,,,,,,,,,,,,,,,,,,,,,,,,,,,,,,,,,,,,,,,,,,,,,,,,,,,,,,,,,,,,,,,,,,,,,,,,,,,,,,,,,,,,,,,,,,,,,,,,,,,,,,,,,,,,,
1606508276.042006,46.000000,0.000000,4210.512695,4197.051270,4213.205078,4197.436035,4209.743652,4201.282227,4211.666504,4201.410156,4201.794922,4190.256348,4228.205078,4226.282227,4217.051270,4237.051270,0.000000,4.000000,,,,0.000000,4.000000,4.000000,4.000000,4.000000,4.000000,4.000000,4.000000,4.000000,4.000000,4.000000,4.000000,4.000000,4.000000,4.000000,100.000000,,,,,,,,,,,,,,,,,,,,,,,,,,,,,,,,,,,,,,,,,,,,,,,,,,,,,,,,,,,,,,,,,,,,,,,,,,,,,,,,,,,,,,,,,,,,,,,,,,,,,,,,,,,,,,,,,
1606508276.049602,47.000000,0.000000,4208.974121,4194.487305,4216.410156,4200.641113,4211.282227,4203.205078,4212.307617,4198.461426,4205.000000,4194.230957,4192.179688,4219.871582,4211.153809,4231.025879,0.000000,4.000000,,,,0.000000,4.000000,4.000000,4.000000,4.000000,4.000000,4.000000,4.000000,4.000000,4.000000,4.000000,4.000000,4.000000,4.000000,4.000000,100.000000,,,,,,,,,,,,,,,,,,,,,,,,,,,,,,,,,,,,,,,,,,,,,,,,,,,,,,,,,,,,,,,,,,,,,,,,,,,,,,,,,,,,,,,,,,,,,,,,,,,,,,,,,,,,,,,,,
