title:vishal nback trial 3, start timestamp:1606509425.768929, stop timestamp:1606509482.224991, headset type:EPOCPLUS, headset serial:4A2C14BB, headset firmware:634, channels:151, sampling rate:eeg_128;mot_32;pm_0.1;pow_8, samples:7247      , version:2.0
Timestamp,EEG.Counter,EEG.Interpolated,EEG.AF3,EEG.F7,EEG.F3,EEG.FC5,EEG.T7,EEG.P7,EEG.O1,EEG.O2,EEG.P8,EEG.T8,EEG.FC6,EEG.F4,EEG.F8,EEG.AF4,EEG.RawCq,EEG.Battery,MarkerIndex,MarkerType,MarkerValueInt,EEG.MarkerHardware,CQ.AF3,CQ.F7,CQ.F3,CQ.FC5,CQ.T7,CQ.P7,CQ.O1,CQ.O2,CQ.P8,CQ.T8,CQ.FC6,CQ.F4,CQ.F8,CQ.AF4,CQ.Overall,MOT.CounterMems,MOT.InterpolatedMems,MOT.Q0,MOT.Q1,MOT.Q2,MOT.Q3,MOT.AccX,MOT.AccY,MOT.AccZ,MOT.MagX,MOT.MagY,MOT.MagZ,PM.Engagement.IsActive,PM.Engagement.Scaled,PM.Engagement.Raw,PM.Engagement.Min,PM.Engagement.Max,PM.Excitement.IsActive,PM.Excitement.Scaled,PM.Excitement.Raw,PM.Excitement.Min,PM.Excitement.Max,PM.LongTermExcitement,PM.Stress.IsActive,PM.Stress.Scaled,PM.Stress.Raw,PM.Stress.Min,PM.Stress.Max,PM.Relaxation.IsActive,PM.Relaxation.Scaled,PM.Relaxation.Raw,PM.Relaxation.Min,PM.Relaxation.Max,PM.Interest.IsActive,PM.Interest.Scaled,PM.Interest.Raw,PM.Interest.Min,PM.Interest.Max,PM.Focus.IsActive,PM.Focus.Scaled,PM.Focus.Raw,PM.Focus.Min,PM.Focus.Max,POW.AF3.Theta,POW.AF3.Alpha,POW.AF3.BetaL,POW.AF3.BetaH,POW.AF3.Gamma,POW.F7.Theta,POW.F7.Alpha,POW.F7.BetaL,POW.F7.BetaH,POW.F7.Gamma,POW.F3.Theta,POW.F3.Alpha,POW.F3.BetaL,POW.F3.BetaH,POW.F3.Gamma,POW.FC5.Theta,POW.FC5.Alpha,POW.FC5.BetaL,POW.FC5.BetaH,POW.FC5.Gamma,POW.T7.Theta,POW.T7.Alpha,POW.T7.BetaL,POW.T7.BetaH,POW.T7.Gamma,POW.P7.Theta,POW.P7.Alpha,POW.P7.BetaL,POW.P7.BetaH,POW.P7.Gamma,POW.O1.Theta,POW.O1.Alpha,POW.O1.BetaL,POW.O1.BetaH,POW.O1.Gamma,POW.O2.Theta,POW.O2.Alpha,POW.O2.BetaL,POW.O2.BetaH,POW.O2.Gamma,POW.P8.Theta,POW.P8.Alpha,POW.P8.BetaL,POW.P8.BetaH,POW.P8.Gamma,POW.T8.Theta,POW.T8.Alpha,POW.T8.BetaL,POW.T8.BetaH,POW.T8.Gamma,POW.FC6.Theta,POW.FC6.Alpha,POW.FC6.BetaL,POW.FC6.BetaH,POW.FC6.Gamma,POW.F4.Theta,POW.F4.Alpha,POW.F4.BetaL,POW.F4.BetaH,POW.F4.Gamma,POW.F8.Theta,POW.F8.Alpha,POW.F8.BetaL,POW.F8.BetaH,POW.F8.Gamma,POW.AF4.Theta,POW.AF4.Alpha,POW.AF4.BetaL,POW.AF4.BetaH,POW.AF4.Gamma
1606509425.768929,42.000000,0.000000,4196.922852,4195.512695,4189.871582,4192.179688,4225.897461,4197.948730,4182.436035,4183.205078,4187.948730,4176.666504,4211.153809,4205.384766,4217.563965,4214.358887,0.000000,4.000000,,,,0.000000,4.000000,4.000000,4.000000,4.000000,4.000000,4.000000,4.000000,4.000000,4.000000,4.000000,4.000000,4.000000,4.000000,4.000000,100.000000,,,,,,,,,,,,,,,,,,,,,,,,,,,,,,,,,,,,,,,,,,,,,,,,,,,,,,,,,,,,,,,,,,,,,,,,,,,,,,,,,,,,,,,,,,,,,,,,,,,,,,,,,,,,,,,,,
1606509425.776637,43.000000,0.000000,4192.820313,4195.512695,4187.563965,4199.743652,4224.871582,4188.333496,4187.563965,4184.871582,4194.743652,4181.282227,4212.948730,4205.769043,4215.000000,4210.641113,0.000000,4.000000,,,,0.000000,4.000000,4.000000,4.000000,4.000000,4.000000,4.000000,4.000000,4.000000,4.000000,4.000000,4.000000,4.000000,4.000000,4.000000,100.000000,,,,,,,,,,,,,,,,,,,,,,,,,,,,,,,,,,,,,,,,,,,,,,,,,,,,,,,,,,,,,,,,,,,,,,,,,,,,,,,,,,,,,,,,,,,,,,,,,,,,,,,,,,,,,,,,,
1606509425.784444,44.000000,0.000000,4186.922852,4192.948730,4190.000000,4195.000000,4211.410156,4187.948730,4185.512695,4192.692383,4201.025879,4190.897461,4221.666504,4210.000000,4221.282227,4211.282227,0.000000,4.000000,,,,0.000000,4.000000,4.000000,4.000000,4.000000,4.000000,4.000000,4.000000,4.000000,4.000000,4.000000,4.000000,4.000000,4.000000,4.000000,100.000000,11.000000,0.000000,0.694543,-0.000488,-0.710938,0.110352,1.008316,-0.170413,-0.021485,-18.841841,-85.685509,12.710765,,,,,,,,,,,,,,,,,,,,,,,,,,,,,,,,,,,,,,,,,,,,,,,,,,,,,,,,,,,,,,,,,,,,,,,,,,,,,,,,,,,,,,,,,,,,,,,,,,,,,
1606509425.792252,45.000000,0.000000,4178.333496,4183.846191,4183.205078,4183.077148,4210.000000,4199.230957,4183.077148,4185.384766,4186.153809,4185.256348,4209.358887,4200.128418,4211.410156,4201.666504,0.000000,4.000000,,,,0.000000,4.000000,4.000000,4.000000,4.000000,4.000000,4.000000,4.000000,4.000000,4.000000,4.000000,4.000000,4.000000,4.000000,4.000000,100.000000,,,,,,,,,,,,,,,,,,,,,,,,,,,,,,,,,,,,,,,,,,,,,,,,,,,,,,,,,,,,,,,,,,,,,,,,,,,,,,,,,,,,,,,,,,,,,,,,,,,,,,,,,,,,,,,,,
1606509425.800060,46.000000,0.000000,4180.256348,4182.820313,4179.871582,4182.563965,4217.051270,4198.077148,4186.538574,4180.769043,4182.051270,4177.179688,4205.769043,4199.743652,4207.051270,4197.820313,0.000000,4.000000,,,,0.000000,4.000000,4.000000,4.000000,4.000000,4.000000,4.000000,4.000000,4.000000,4.000000,4.000000,4.000000,4.000000,4.000000,4.000000,100.000000,,,,,,,,,,,,,,,,,,,,,,,,,,,,,,,,,,,,,,,,,,,,,,,,,,,,,,,,,,,,,,,,,,,,,,,,,,,,,,,,,,,,,,,,,,,,,,,,,,,,,,,,,,,,,,,,,
1606509425.807868,47.000000,0.000000,4185.000000,4186.538574,4181.282227,4182.436035,4218.077148,4187.948730,4182.948730,4182.563965,4184.615234,4169.358887,4216.410156,4203.589844,4209.871582,4201.153809,0.000000,4.000000,,,,0.000000,4.000000,4.000000,4.000000,4.000000,4.000000,4.000000,4.000000,4.000000,4.000000,4.000000,4.000000,4.000000,4.000000,4.000000,100.000000,,,,,,,,,,,,,,,,,,,,,,,,,,,,,,,,,,,,,,,,,,,,,,,,,,,,,,,,,,,,,,,,,,,,,,,,,,,,,,,,,,,,,,,,,,,,,,,,,,,,,,,,,,,,,,,,,
1606509425.815675,48.000000,0.000000,4192.436035,4193.974121,4187.307617,4188.461426,4213.589844,4183.333496,4173.589844,4186.025879,4186.538574,4171.666504,4214.230957,4201.538574,4205.641113,4203.846191,0.000000,4.000000,,,,0.000000,4.000000,4.000000,4.000000,4.000000,4.000000,4.000000,4.000000,4.000000,4.000000,4.000000,4.000000,4.000000,4.000000,4.000000,100.000000,12.000000,0.000000,0.694548,-0.000427,-0.710999,0.109924,0.996597,-0.163577,-0.003906,-18.393225,-84.937820,13.458457,,,,,,,,,,,,,,,,,,,,,,,,,,,,,,,,,,,,,,,,,,,,,,,,,,,,,,,,,,,,,,,,,,,,,,,,,,,,,,,,,,,,,,,,,,,,,,,,,,,,,
1606509425.823483,49.000000,0.000000,4203.333496,4202.820313,4197.563965,4201.153809,4214.487305,4193.461426,4184.871582,4184.615234,4187.692383,4175.128418,4199.102539,4203.589844,4198.077148,4202.692383,0.000000,4.000000,,,,0.000000,4.000000,4.000000,4.000000,4.000000,4.000000,4.000000,4.000000,4.000000,4.000000,4.000000,4.000000,4.000000,4.000000,4.000000,100.000000,,,,,,,,,,,,,,,,,,,,,,,,,,,,,,,,,,,,,,,,,,,,,,,,,,,,,,,,,,,,,,,,,,,,,,,,,,,,,,,,,,,,,,,,,,,,,,,,,,,,,,,,,,,,,,,,,
1606509425.831194,50.000000,0.000000,4204.487305,4201.538574,4201.794922,4200.000000,4216.282227,4205.128418,4201.153809,4181.794922,4184.615234,4174.230957,4198.333496,4209.358887,4203.077148,4205.769043,0.000000,4.000000,,,,0.000000,4.000000,4.000000,4.000000,4.000000,4.000000,4.000000,4.000000,4.000000,4.000000,4.000000,4.000000,4.000000,4.000000,4.000000,100.000000,,,,,,,,,,,,,,,,,,,,,,,,,,,,,,,,,,,,,,,,,,,,,,,,,,,,,,,,,,,,,,,,,,,,,,,,,,,,,,,,,,,,,,,,,,,,,,,,,,,,,,,,,,,,,,,,,
1606509425.839004,51.000000,0.000000,4202.436035,4201.025879,4202.563965,4198.333496,4216.025879,4198.077148,4192.692383,4193.333496,4196.153809,4188.333496,4208.717773,4216.282227,4216.922852,4215.897461,0.000000,4.000000,,,,0.000000,4.000000,4.000000,4.000000,4.000000,4.000000,4.000000,4.000000,4.000000,4.000000,4.000000,4.000000,4.000000,4.000000,4.000000,100.000000,,,,,,,,,,,,,,,,,,,,,,,,,,,,,,,,,,,,,,,,,,,,,,,,,,,,,,,,,,,,,,,,,,,,,,,,,,,,,,,,,,,,,,,,,,,,,,,,,,,,,,,,,,,,,,,,,
1606509425.846815,52.000000,0.000000,4201.410156,4203.077148,4201.410156,4197.563965,4218.333496,4190.384766,4179.230957,4197.948730,4206.538574,4192.051270,4194.743652,4215.000000,4211.538574,4211.410156,0.000000,4.000000,,,,0.000000,4.000000,4.000000,4.000000,4.000000,4.000000,4.000000,4.000000,4.000000,4.000000,4.000000,4.000000,4.000000,4.000000,4.000000,100.000000,13.000000,0.000000,0.694899,-0.000244,-0.710815,0.108887,1.014664,-0.161135,0.000488,-17.645533,-84.937820,13.907073,,,,,,,,,,,,,,,,,,,,,,,,,,,,,,,,,,,,,,,,,,,,,,,,,,,,,,,,,,,,,,,,,,,,,,,,,,,,,,,,,,,,,,,,,,,,,,,,,,,,,
1606509425.854626,53.000000,0.000000,4198.974121,4198.974121,4197.692383,4192.051270,4220.512695,4198.717773,4182.051270,4183.461426,4190.256348,4174.487305,4180.000000,4206.922852,4200.384766,4198.205078,0.000000,4.000000,,,,0.000000,4.000000,4.000000,4.000000,4.000000,4.000000,4.000000,4.000000,4.000000,4.000000,4.000000,4.000000,4.000000,4.000000,4.000000,100.000000,,,,,,,,,,,,,,,,,,,,,,,,,,,,,,,,,,,,,,,,,,,,,,,,,,,,,,,,,,,,,,,,,,,,,,,,,,,,,,,,,,,,,,,,,,,,,,,,,,,,,,,,,,,,,,,,,
1606509425.862436,54.000000,0.000000,4200.000000,4199.358887,4196.538574,4197.692383,4213.077148,4202.436035,4192.692383,4184.743652,4186.410156,4171.666504,4189.102539,4206.794922,4205.769043,4200.000000,0.000000,4.000000,,,,0.000000,4.000000,4.000000,4.000000,4.000000,4.000000,4.000000,4.000000,4.000000,4.000000,4.000000,4.000000,4.000000,4.000000,4.000000,100.000000,,,,,,,,,,,,,,,,,,,,,,,,,,,,,,,,,,,,,,,,,,,,1.281930,1.855733,2.139296,0.464675,0.451111,0.835741,1.090616,1.468010,0.261322,0.351159,0.974664,1.752454,1.895745,0.367765,0.377938,0.395461,1.201576,1.292982,0.363399,0.272132,0.729755,0.569019,0.694731,0.777219,0.553220,0.583024,0.286156,0.444960,0.160536,0.147109,0.168578,0.303056,0.483191,0.383801,0.448209,0.224339,0.913311,0.472189,0.378053,0.521918,0.432934,1.826982,1.415279,0.767949,0.890230,0.547621,3.749463,2.473682,0.950048,0.930144,0.863087,2.167481,1.473220,0.741826,0.754788,0.795442,2.636561,1.656179,0.690741,0.511796,1.187605,2.322145,2.055023,0.601512,0.591812,0.956658,1.618310,1.690970,0.509688,0.543839
1606509425.870247,55.000000,0.000000,4192.820313,4200.000000,4190.512695,4202.436035,4214.358887,4198.717773,4196.410156,4195.897461,4195.641113,4172.051270,4178.846191,4204.102539,4200.128418,4199.102539,0.000000,4.000000,,,,0.000000,4.000000,4.000000,4.000000,4.000000,4.000000,4.000000,4.000000,4.000000,4.000000,4.000000,4.000000,4.000000,4.000000,4.000000,100.000000,,,,,,,,,,,,,,,,,,,,,,,,,,,,,,,,,,,,,,,,,,,,,,,,,,,,,,,,,,,,,,,,,,,,,,,,,,,,,,,,,,,,,,,,,,,,,,,,,,,,,,,,,,,,,,,,,
1606509425.878057,56.000000,0.000000,4182.307617,4195.897461,4184.358887,4192.692383,4228.846191,4197.820313,4186.410156,4189.487305,4186.794922,4167.051270,4153.589844,4199.487305,4187.436035,4192.051270,0.000000,4.000000,,,,0.000000,4.000000,4.000000,4.000000,4.000000,4.000000,4.000000,4.000000,4.000000,4.000000,4.000000,4.000000,4.000000,4.000000,4.000000,100.000000,14.000000,0.000000,0.695137,-0.000244,-0.710815,0.107361,1.014664,-0.160159,0.000488,-18.243687,-85.535973,13.308919,,,,,,,,,,,,,,,,,,,,,,,,,,,,,,,,,,,,,,,,,,,,,,,,,,,,,,,,,,,,,,,,,,,,,,,,,,,,,,,,,,,,,,,,,,,,,,,,,,,,,
1606509425.885868,57.000000,0.000000,4189.743652,4198.077148,4193.077148,4189.871582,4222.820313,4199.102539,4182.307617,4188.461426,4192.051270,4184.743652,4162.948730,4208.717773,4202.179688,4204.102539,0.000000,4.000000,,,,0.000000,4.000000,4.000000,4.000000,4.000000,4.000000,4.000000,4.000000,4.000000,4.000000,4.000000,4.000000,4.000000,4.000000,4.000000,100.000000,,,,,,,,,,,,,,,,,,,,,,,,,,,,,,,,,,,,,,,,,,,,,,,,,,,,,,,,,,,,,,,,,,,,,,,,,,,,,,,,,,,,,,,,,,,,,,,,,,,,,,,,,,,,,,,,,
1606509425.893678,58.000000,0.000000,4200.769043,4208.077148,4205.000000,4204.615234,4205.384766,4197.179688,4191.538574,4203.846191,4218.974121,4212.051270,4193.589844,4222.820313,4223.333496,4225.384766,0.000000,4.000000,,,,0.000000,4.000000,4.000000,4.000000,4.000000,4.000000,4.000000,4.000000,4.000000,4.000000,4.000000,4.000000,4.000000,4.000000,4.000000,100.000000,,,,,,,,,,,,,,,,,,,,,,,,,,,,,,,,,,,,,,,,,,,,,,,,,,,,,,,,,,,,,,,,,,,,,,,,,,,,,,,,,,,,,,,,,,,,,,,,,,,,,,,,,,,,,,,,,
1606509425.901489,59.000000,0.000000,4197.563965,4209.871582,4201.153809,4207.436035,4208.461426,4197.692383,4198.717773,4207.563965,4219.102539,4214.743652,4196.410156,4222.051270,4220.128418,4223.717773,0.000000,4.000000,,,,0.000000,4.000000,4.000000,4.000000,4.000000,4.000000,4.000000,4.000000,4.000000,4.000000,4.000000,4.000000,4.000000,4.000000,4.000000,100.000000,,,,,,,,,,,,,,,,,,,,,,,,,,,,,,,,,,,,,,,,,,,,,,,,,,,,,,,,,,,,,,,,,,,,,,,,,,,,,,,,,,,,,,,,,,,,,,,,,,,,,,,,,,,,,,,,,
1606509425.909193,60.000000,0.000000,4172.051270,4188.589844,4177.820313,4184.358887,4205.897461,4209.615234,4211.153809,4195.128418,4190.000000,4184.615234,4167.692383,4197.820313,4194.487305,4192.436035,0.000000,4.000000,,,,0.000000,4.000000,4.000000,4.000000,4.000000,4.000000,4.000000,4.000000,4.000000,4.000000,4.000000,4.000000,4.000000,4.000000,4.000000,100.000000,15.000000,0.000000,0.695005,-0.000916,-0.711182,0.105774,1.016617,-0.167971,0.008789,-18.692303,-85.535973,12.561227,,,,,,,,,,,,,,,,,,,,,,,,,,,,,,,,,,,,,,,,,,,,,,,,,,,,,,,,,,,,,,,,,,,,,,,,,,,,,,,,,,,,,,,,,,,,,,,,,,,,,
1606509425.916997,61.000000,0.000000,4163.846191,4183.974121,4170.384766,4179.743652,4199.743652,4212.820313,4212.820313,4195.512695,4192.820313,4177.436035,4159.102539,4186.666504,4189.615234,4182.179688,0.000000,4.000000,,,,0.000000,4.000000,4.000000,4.000000,4.000000,4.000000,4.000000,4.000000,4.000000,4.000000,4.000000,4.000000,4.000000,4.000000,4.000000,100.000000,,,,,,,,,,,,,,,,,,,,,,,,,,,,,,,,,,,,,,,,,,,,,,,,,,,,,,,,,,,,,,,,,,,,,,,,,,,,,,,,,,,,,,,,,,,,,,,,,,,,,,,,,,,,,,,,,
1606509425.924801,62.000000,0.000000,4191.666504,4210.512695,4192.948730,4200.128418,4214.743652,4193.077148,4187.436035,4202.563965,4217.820313,4212.948730,4181.922852,4212.692383,4217.307617,4207.436035,0.000000,4.000000,,,,0.000000,4.000000,4.000000,4.000000,4.000000,4.000000,4.000000,4.000000,4.000000,4.000000,4.000000,4.000000,4.000000,4.000000,4.000000,100.000000,,,,,,,,,,,,,,,,,,,,,,,,,,,,,,,,,,,,,,,,,,,,,,,,,,,,,,,,,,,,,,,,,,,,,,,,,,,,,,,,,,,,,,,,,,,,,,,,,,,,,,,,,,,,,,,,,
1606509425.932605,63.000000,0.000000,4201.538574,4214.615234,4204.487305,4203.205078,4218.974121,4184.487305,4181.282227,4196.410156,4210.769043,4217.692383,4185.128418,4222.307617,4221.282227,4212.948730,0.000000,4.000000,,,,0.000000,4.000000,4.000000,4.000000,4.000000,4.000000,4.000000,4.000000,4.000000,4.000000,4.000000,4.000000,4.000000,4.000000,4.000000,100.000000,,,,,,,,,,,,,,,,,,,,,,,,,,,,,,,,,,,,,,,,,,,,,,,,,,,,,,,,,,,,,,,,,,,,,,,,,,,,,,,,,,,,,,,,,,,,,,,,,,,,,,,,,,,,,,,,,
1606509425.940316,64.000000,0.000000,4182.051270,4196.922852,4195.512695,4197.436035,4205.897461,4200.000000,4194.230957,4186.794922,4193.205078,4185.256348,4167.307617,4198.333496,4198.205078,4197.051270,3380.000000,4.000000,,,,0.000000,4.000000,4.000000,4.000000,4.000000,4.000000,4.000000,4.000000,4.000000,4.000000,4.000000,4.000000,4.000000,4.000000,4.000000,100.000000,16.000000,0.000000,0.694673,-0.001709,-0.711792,0.103821,1.029313,-0.157717,-0.016602,-16.748302,-86.732277,14.654764,,,,,,,,,,,,,,,,,,,,,,,,,,,,,,,,,,,,,,,,,,,,,,,,,,,,,,,,,,,,,,,,,,,,,,,,,,,,,,,,,,,,,,,,,,,,,,,,,,,,,
1606509425.948127,65.000000,0.000000,4180.000000,4201.538574,4191.153809,4201.538574,4206.922852,4204.871582,4193.205078,4192.179688,4196.153809,4172.948730,4164.871582,4194.871582,4192.948730,4194.743652,3494.000000,4.000000,,,,0.000000,4.000000,4.000000,4.000000,4.000000,4.000000,4.000000,4.000000,4.000000,4.000000,4.000000,4.000000,4.000000,4.000000,4.000000,100.000000,,,,,,,,,,,,,,,,,,,,,,,,,,,,,,,,,,,,,,,,,,,,,,,,,,,,,,,,,,,,,,,,,,,,,,,,,,,,,,,,,,,,,,,,,,,,,,,,,,,,,,,,,,,,,,,,,
1606509425.955938,66.000000,0.000000,4187.820313,4202.179688,4188.461426,4194.615234,4206.922852,4195.641113,4194.230957,4200.000000,4195.897461,4182.307617,4169.230957,4202.563965,4194.102539,4192.179688,3542.000000,4.000000,,,,0.000000,4.000000,4.000000,4.000000,4.000000,4.000000,4.000000,4.000000,4.000000,4.000000,4.000000,4.000000,4.000000,4.000000,4.000000,100.000000,,,,,,,,,,,,,,,,,,,,,,,,,,,,,,,,,,,,,,,,,,,,,,,,,,,,,,,,,,,,,,,,,,,,,,,,,,,,,,,,,,,,,,,,,,,,,,,,,,,,,,,,,,,,,,,,,
1606509425.963749,67.000000,0.000000,4177.820313,4181.282227,4180.641113,4179.871582,4196.794922,4199.230957,4199.871582,4190.128418,4182.179688,4181.794922,4157.820313,4186.666504,4182.820313,4182.436035,3412.000000,4.000000,,,,0.000000,4.000000,4.000000,4.000000,4.000000,4.000000,4.000000,4.000000,4.000000,4.000000,4.000000,4.000000,4.000000,4.000000,4.000000,100.000000,,,,,,,,,,,,,,,,,,,,,,,,,,,,,,,,,,,,,,,,,,,,,,,,,,,,,,,,,,,,,,,,,,,,,,,,,,,,,,,,,,,,,,,,,,,,,,,,,,,,,,,,,,,,,,,,,
1606509425.971560,68.000000,0.000000,4175.641113,4186.666504,4183.205078,4189.102539,4205.769043,4205.641113,4187.820313,4187.692383,4187.563965,4175.128418,4147.436035,4185.000000,4183.205078,4191.282227,3384.000000,4.000000,,,,0.000000,4.000000,4.000000,4.000000,4.000000,4.000000,4.000000,4.000000,4.000000,4.000000,4.000000,4.000000,4.000000,4.000000,4.000000,100.000000,17.000000,0.000000,0.694227,-0.002380,-0.712524,0.101746,1.012223,-0.175296,-0.005371,-18.692303,-86.283669,14.505226,,,,,,,,,,,,,,,,,,,,,,,,,,,,,,,,,,,,,,,,,,,,,,,,,,,,,,,,,,,,,,,,,,,,,,,,,,,,,,,,,,,,,,,,,,,,,,,,,,,,,
1606509425.979371,69.000000,0.000000,4188.205078,4208.846191,4191.025879,4204.230957,4220.641113,4203.077148,4190.769043,4198.205078,4202.436035,4170.897461,4152.436035,4203.333496,4188.717773,4199.871582,3260.000000,4.000000,,,,0.000000,4.000000,4.000000,4.000000,4.000000,4.000000,4.000000,4.000000,4.000000,4.000000,4.000000,4.000000,4.000000,4.000000,4.000000,100.000000,,,,,,,,,,,,,,,,,,,,,,,,,,,,,,,,,,,,,,,,,,,,,,,,,,,,,,,,,,,,,,,,,,,,,,,,,,,,,,,,,,,,,,,,,,,,,,,,,,,,,,,,,,,,,,,,,
1606509425.987182,70.000000,0.000000,4195.641113,4205.384766,4192.948730,4200.512695,4214.871582,4200.641113,4212.563965,4203.077148,4202.179688,4180.256348,4164.230957,4204.615234,4189.615234,4196.794922,2919.000000,4.000000,,,,0.000000,4.000000,4.000000,4.000000,4.000000,4.000000,4.000000,4.000000,4.000000,4.000000,4.000000,4.000000,4.000000,4.000000,4.000000,100.000000,,,,,,,,,,,,,,,,,,,,,,,,,,,,,,,,,,,,,,,,,,,,1.246313,1.755735,1.895004,0.457415,0.426490,0.723510,1.106378,1.340589,0.252435,0.334231,0.927381,1.629121,1.713192,0.363848,0.332640,0.361727,1.219187,1.227125,0.334198,0.255103,0.759044,0.509966,0.618139,0.731256,0.570968,0.606992,0.285329,0.463010,0.156259,0.159503,0.197979,0.339314,0.504873,0.351757,0.487867,0.260246,1.148094,0.584404,0.351307,0.500621,0.490379,1.997702,1.371742,0.696748,0.762840,0.633449,3.894277,2.383230,0.934285,0.801686,0.976105,2.408425,1.590562,0.762310,0.699617,0.866380,2.693319,1.547274,0.695983,0.421894,1.210907,2.474610,1.904551,0.613921,0.547460,1.054992,1.673528,1.654086,0.522224,0.489968
1606509425.994993,71.000000,0.000000,4194.615234,4188.461426,4191.538574,4188.974121,4205.769043,4200.512695,4205.256348,4200.256348,4193.974121,4186.794922,4169.358887,4196.410156,4191.794922,4193.717773,2609.000000,4.000000,,,,0.000000,4.000000,4.000000,4.000000,4.000000,4.000000,4.000000,4.000000,4.000000,4.000000,4.000000,4.000000,4.000000,4.000000,4.000000,100.000000,,,,,,,,,,,,,,,,,,,,,,,,,,,,,,,,,,,,,,,,,,,,,,,,,,,,,,,,,,,,,,,,,,,,,,,,,,,,,,,,,,,,,,,,,,,,,,,,,,,,,,,,,,,,,,,,,
1606509426.002805,72.000000,0.000000,4189.230957,4184.615234,4189.743652,4189.487305,4208.077148,4201.153809,4188.717773,4201.410156,4194.358887,4178.333496,4171.666504,4203.974121,4191.794922,4195.512695,3287.000000,4.000000,,,,0.000000,4.000000,4.000000,4.000000,4.000000,4.000000,4.000000,4.000000,4.000000,4.000000,4.000000,4.000000,4.000000,4.000000,4.000000,100.000000,18.000000,0.000000,0.693808,-0.002625,-0.713318,0.098999,1.025406,-0.166018,-0.008301,-17.944611,-85.236893,11.663997,,,,,,,,,,,,,,,,,,,,,,,,,,,,,,,,,,,,,,,,,,,,,,,,,,,,,,,,,,,,,,,,,,,,,,,,,,,,,,,,,,,,,,,,,,,,,,,,,,,,,
1606509426.010616,73.000000,0.000000,4200.256348,4201.282227,4198.461426,4201.666504,4210.769043,4199.102539,4194.230957,4204.487305,4206.025879,4190.384766,4190.641113,4221.410156,4207.307617,4215.256348,3570.000000,4.000000,,,,0.000000,4.000000,4.000000,4.000000,4.000000,4.000000,4.000000,4.000000,4.000000,4.000000,4.000000,4.000000,4.000000,4.000000,4.000000,100.000000,,,,,,,,,,,,,,,,,,,,,,,,,,,,,,,,,,,,,,,,,,,,,,,,,,,,,,,,,,,,,,,,,,,,,,,,,,,,,,,,,,,,,,,,,,,,,,,,,,,,,,,,,,,,,,,,,
1606509426.018326,74.000000,0.000000,4215.897461,4214.743652,4203.205078,4202.820313,4204.743652,4203.717773,4206.666504,4199.871582,4212.179688,4205.128418,4189.743652,4221.153809,4223.846191,4222.692383,3307.000000,4.000000,,,,0.000000,4.000000,4.000000,4.000000,4.000000,4.000000,4.000000,4.000000,4.000000,4.000000,4.000000,4.000000,4.000000,4.000000,4.000000,100.000000,,,,,,,,,,,,,,,,,,,,,,,,,,,,,,,,,,,,,,,,,,,,,,,,,,,,,,,,,,,,,,,,,,,,,,,,,,,,,,,,,,,,,,,,,,,,,,,,,,,,,,,,,,,,,,,,,
1606509426.026136,75.000000,0.000000,4217.179688,4209.230957,4196.794922,4200.641113,4209.487305,4209.615234,4204.230957,4203.461426,4212.563965,4207.948730,4168.461426,4209.358887,4210.512695,4204.743652,3316.000000,4.000000,,,,0.000000,4.000000,4.000000,4.000000,4.000000,4.000000,4.000000,4.000000,4.000000,4.000000,4.000000,4.000000,4.000000,4.000000,4.000000,100.000000,,,,,,,,,,,,,,,,,,,,,,,,,,,,,,,,,,,,,,,,,,,,,,,,,,,,,,,,,,,,,,,,,,,,,,,,,,,,,,,,,,,,,,,,,,,,,,,,,,,,,,,,,,,,,,,,,
1606509426.033947,76.000000,0.000000,4205.769043,4195.641113,4191.410156,4200.128418,4216.666504,4206.794922,4202.948730,4205.000000,4207.563965,4207.051270,4176.153809,4196.410156,4181.538574,4193.077148,3354.000000,4.000000,,,,0.000000,4.000000,4.000000,4.000000,4.000000,4.000000,4.000000,4.000000,4.000000,4.000000,4.000000,4.000000,4.000000,4.000000,4.000000,100.000000,19.000000,0.000000,0.693280,-0.002319,-0.714355,0.095154,1.063981,-0.196780,-0.002441,-17.795071,-87.031357,13.308919,,,,,,,,,,,,,,,,,,,,,,,,,,,,,,,,,,,,,,,,,,,,,,,,,,,,,,,,,,,,,,,,,,,,,,,,,,,,,,,,,,,,,,,,,,,,,,,,,,,,,
1606509426.041757,77.000000,0.000000,4179.102539,4192.307617,4181.538574,4194.102539,4206.538574,4201.666504,4209.230957,4198.846191,4198.846191,4185.000000,4181.025879,4187.820313,4179.102539,4195.641113,3301.000000,4.000000,,,,0.000000,4.000000,4.000000,4.000000,4.000000,4.000000,4.000000,4.000000,4.000000,4.000000,4.000000,4.000000,4.000000,4.000000,4.000000,100.000000,,,,,,,,,,,,,,,,,,,,,,,,,,,,,,,,,,,,,,,,,,,,,,,,,,,,,,,,,,,,,,,,,,,,,,,,,,,,,,,,,,,,,,,,,,,,,,,,,,,,,,,,,,,,,,,,,
1606509426.049568,78.000000,0.000000,4178.589844,4203.589844,4180.512695,4200.512695,4202.051270,4200.384766,4203.589844,4198.846191,4204.358887,4172.692383,4172.948730,4198.846191,4204.358887,4203.974121,3307.000000,4.000000,,,,0.000000,4.000000,4.000000,4.000000,4.000000,4.000000,4.000000,4.000000,4.000000,4.000000,4.000000,4.000000,4.000000,4.000000,4.000000,100.000000,,,,,,,,,,,,,,,,,,,,,,,,,,,,,,,,,,,,,,,,,,,,,,,,,,,,,,,,,,,,,,,,,,,,,,,,,,,,,,,,,,,,,,,,,,,,,,,,,,,,,,,,,,,,,,,,,
1606509426.057378,79.000000,0.000000,4228.589844,4215.897461,4204.230957,4217.436035,4215.769043,4201.922852,4190.897461,4202.948730,4215.256348,4195.512695,4187.948730,4216.410156,4218.077148,4223.589844,3316.000000,4.000000,,,,0.000000,4.000000,4.000000,4.000000,4.000000,4.000000,4.000000,4.000000,4.000000,4.000000,4.000000,4.000000,4.000000,4.000000,4.000000,100.000000,,,,,,,,,,,,,,,,,,,,,,,,,,,,,,,,,,,,,,,,,,,,,,,,,,,,,,,,,,,,,,,,,,,,,,,,,,,,,,,,,,,,,,,,,,,,,,,,,,,,,,,,,,,,,,,,,
1606509426.065188,80.000000,0.000000,4257.179688,4221.410156,4222.179688,4221.538574,4221.025879,4196.666504,4185.384766,4200.384766,4209.615234,4206.922852,4210.641113,4221.282227,4221.538574,4245.384766,3354.000000,4.000000,,,,0.000000,4.000000,4.000000,4.000000,4.000000,4.000000,4.000000,4.000000,4.000000,4.000000,4.000000,4.000000,4.000000,4.000000,4.000000,100.000000,20.000000,0.000000,0.691973,-0.001892,-0.716370,0.089355,1.037125,-0.148928,-0.006348,-20.187687,-83.891052,12.262150,,,,,,,,,,,,,,,,,,,,,,,,,,,,,,,,,,,,,,,,,,,,,,,,,,,,,,,,,,,,,,,,,,,,,,,,,,,,,,,,,,,,,,,,,,,,,,,,,,,,,
1606509426.072999,81.000000,0.000000,4228.461426,4218.333496,4217.051270,4213.205078,4211.794922,4188.846191,4191.922852,4197.692383,4201.410156,4186.025879,4216.794922,4227.307617,4233.846191,4256.025879,3301.000000,4.000000,,,,0.000000,4.000000,4.000000,4.000000,4.000000,4.000000,4.000000,4.000000,4.000000,4.000000,4.000000,4.000000,4.000000,4.000000,4.000000,100.000000,,,,,,,,,,,,,,,,,,,,,,,,,,,,,,,,,,,,,,,,,,,,,,,,,,,,,,,,,,,,,,,,,,,,,,,,,,,,,,,,,,,,,,,,,,,,,,,,,,,,,,,,,,,,,,,,,
1606509426.080809,82.000000,0.000000,4208.717773,4206.538574,4210.256348,4205.769043,4200.256348,4187.051270,4201.025879,4200.512695,4196.410156,4168.846191,4207.820313,4234.487305,4229.487305,4257.179688,3307.000000,4.000000,,,,0.000000,4.000000,4.000000,4.000000,4.000000,4.000000,4.000000,4.000000,4.000000,4.000000,4.000000,4.000000,4.000000,4.000000,4.000000,100.000000,,,,,,,,,,,,,,,,,,,,,,,,,,,,,,,,,,,,,,,,,,,,,,,,,,,,,,,,,,,,,,,,,,,,,,,,,,,,,,,,,,,,,,,,,,,,,,,,,,,,,,,,,,,,,,,,,
1606509426.088619,83.000000,0.000000,4226.538574,4207.307617,4217.436035,4208.205078,4197.051270,4188.589844,4202.692383,4200.897461,4194.230957,4176.922852,4201.922852,4236.153809,4219.871582,4256.538574,3316.000000,4.000000,,,,0.000000,4.000000,4.000000,4.000000,4.000000,4.000000,4.000000,4.000000,4.000000,4.000000,4.000000,4.000000,4.000000,4.000000,4.000000,100.000000,,,,,,,,,,,,,,,,,,,,,,,,,,,,,,,,,,,,,,,,,,,,,,,,,,,,,,,,,,,,,,,,,,,,,,,,,,,,,,,,,,,,,,,,,,,,,,,,,,,,,,,,,,,,,,,,,
1606509426.096329,84.000000,0.000000,4229.102539,4217.179688,4220.512695,4216.794922,4201.410156,4189.871582,4198.077148,4200.128418,4207.820313,4194.102539,4205.384766,4240.128418,4230.000000,4255.256348,3354.000000,4.000000,,,,0.000000,4.000000,4.000000,4.000000,4.000000,4.000000,4.000000,4.000000,4.000000,4.000000,4.000000,4.000000,4.000000,4.000000,4.000000,100.000000,21.000000,0.000000,0.690950,-0.002136,-0.717773,0.085938,1.021988,-0.125490,-0.026368,-17.645533,-83.442436,14.654764,,,,,,,,,,,,,,,,,,,,,,,,,,,,,,,,,,,,,,,,,,,,,,,,,,,,,,,,,,,,,,,,,,,,,,,,,,,,,,,,,,,,,,,,,,,,,,,,,,,,,
1606509426.104139,85.000000,0.000000,4207.948730,4210.769043,4208.077148,4210.128418,4202.051270,4192.820313,4198.717773,4204.615234,4218.589844,4194.871582,4209.743652,4234.871582,4229.358887,4243.077148,3301.000000,4.000000,,,,0.000000,4.000000,4.000000,4.000000,4.000000,4.000000,4.000000,4.000000,4.000000,4.000000,4.000000,4.000000,4.000000,4.000000,4.000000,100.000000,,,,,,,,,,,,,,,,,,,,,,,,,,,,,,,,,,,,,,,,,,,,,,,,,,,,,,,,,,,,,,,,,,,,,,,,,,,,,,,,,,,,,,,,,,,,,,,,,,,,,,,,,,,,,,,,,
1606509426.111949,86.000000,0.000000,4191.538574,4195.256348,4194.487305,4188.461426,4195.897461,4200.256348,4207.051270,4213.461426,4212.307617,4180.897461,4200.897461,4218.717773,4211.666504,4225.256348,3307.000000,4.000000,,,,0.000000,4.000000,4.000000,4.000000,4.000000,4.000000,4.000000,4.000000,4.000000,4.000000,4.000000,4.000000,4.000000,4.000000,4.000000,100.000000,,,,,,,,,,,,,,,,,,,,,,,,,,,,,,,,,,,,,,,,,,,,1.279587,1.736400,1.673219,0.451858,0.404505,0.605406,1.219993,1.171563,0.260192,0.316692,0.857491,1.489850,1.508326,0.362643,0.291307,0.335391,1.229669,1.127509,0.314306,0.240960,0.773134,0.495009,0.547747,0.635866,0.594957,0.599552,0.270387,0.450791,0.172955,0.175312,0.229324,0.391352,0.552036,0.331837,0.546065,0.306186,1.383660,0.745862,0.317265,0.483775,0.550791,2.204584,1.438834,0.594981,0.651613,0.819234,3.755154,2.322025,0.877722,0.676193,1.062703,2.487203,1.690379,0.761289,0.663127,0.943073,2.501878,1.396280,0.694715,0.363607,1.217912,2.417656,1.723038,0.628429,0.512066,1.218416,1.692669,1.620225,0.558115,0.445882
1606509426.119759,87.000000,0.000000,4189.871582,4197.948730,4196.666504,4189.102539,4200.512695,4202.307617,4204.102539,4214.871582,4216.538574,4183.589844,4197.563965,4219.871582,4214.871582,4226.282227,3316.000000,4.000000,,,,0.000000,4.000000,4.000000,4.000000,4.000000,4.000000,4.000000,4.000000,4.000000,4.000000,4.000000,4.000000,4.000000,4.000000,4.000000,100.000000,,,,,,,,,,,,,,,,,,,,,,,,,,,,,,,,,,,,,,,,,,,,,,,,,,,,,,,,,,,,,,,,,,,,,,,,,,,,,,,,,,,,,,,,,,,,,,,,,,,,,,,,,,,,,,,,,
1606509426.127569,88.000000,0.000000,4190.128418,4204.230957,4201.282227,4205.128418,4208.077148,4198.846191,4201.794922,4206.410156,4223.077148,4186.282227,4205.000000,4223.589844,4218.333496,4226.410156,3354.000000,4.000000,,,,0.000000,4.000000,4.000000,4.000000,4.000000,4.000000,4.000000,4.000000,4.000000,4.000000,4.000000,4.000000,4.000000,4.000000,4.000000,100.000000,22.000000,0.000000,0.688848,-0.003784,-0.720520,0.079529,1.034684,-0.142580,-0.032715,-17.795071,-84.788284,12.561227,,,,,,,,,,,,,,,,,,,,,,,,,,,,,,,,,,,,,,,,,,,,,,,,,,,,,,,,,,,,,,,,,,,,,,,,,,,,,,,,,,,,,,,,,,,,,,,,,,,,,
1606509426.135379,89.000000,0.000000,4183.717773,4200.641113,4195.641113,4205.641113,4205.641113,4194.615234,4198.846191,4197.307617,4208.974121,4174.743652,4199.871582,4215.769043,4205.000000,4215.512695,3301.000000,4.000000,,,,0.000000,4.000000,4.000000,4.000000,4.000000,4.000000,4.000000,4.000000,4.000000,4.000000,4.000000,4.000000,4.000000,4.000000,4.000000,100.000000,,,,,,,,,,,,,,,,,,,,,,,,,,,,,,,,,,,,,,,,,,,,,,,,,,,,,,,,,,,,,,,,,,,,,,,,,,,,,,,,,,,,,,,,,,,,,,,,,,,,,,,,,,,,,,,,,
1606509426.143189,90.000000,0.000000,4177.692383,4200.256348,4191.282227,4196.666504,4197.563965,4189.871582,4186.666504,4190.000000,4192.948730,4166.794922,4191.922852,4213.461426,4204.358887,4216.153809,3307.000000,4.000000,,,,0.000000,4.000000,4.000000,4.000000,4.000000,4.000000,4.000000,4.000000,4.000000,4.000000,4.000000,4.000000,4.000000,4.000000,4.000000,100.000000,,,,,,,,,,,,,,,,,,,,,,,,,,,,,,,,,,,,,,,,,,,,,,,,,,,,,,,,,,,,,,,,,,,,,,,,,,,,,,,,,,,,,,,,,,,,,,,,,,,,,,,,,,,,,,,,,
1606509426.150998,91.000000,0.000000,4171.025879,4202.563965,4187.436035,4197.563965,4189.743652,4186.153809,4185.641113,4189.743652,4188.717773,4151.410156,4189.615234,4211.025879,4207.692383,4213.077148,3316.000000,4.000000,,,,0.000000,4.000000,4.000000,4.000000,4.000000,4.000000,4.000000,4.000000,4.000000,4.000000,4.000000,4.000000,4.000000,4.000000,4.000000,100.000000,,,,,,,,,,,,,,,,,,,,,,,,,,,,,,,,,,,,,,,,,,,,,,,,,,,,,,,,,,,,,,,,,,,,,,,,,,,,,,,,,,,,,,,,,,,,,,,,,,,,,,,,,,,,,,,,,
1606509426.158808,92.000000,0.000000,4162.436035,4196.538574,4180.769043,4198.077148,4184.615234,4185.512695,4201.025879,4196.666504,4185.128418,4133.205078,4185.000000,4198.974121,4194.487305,4195.384766,3354.000000,4.000000,,,,0.000000,4.000000,4.000000,4.000000,4.000000,4.000000,4.000000,4.000000,4.000000,4.000000,4.000000,4.000000,4.000000,4.000000,4.000000,100.000000,23.000000,0.000000,0.687022,-0.005798,-0.722900,0.073364,1.003922,-0.098634,-0.037110,-17.795071,-85.087357,13.009842,,,,,,,,,,,,,,,,,,,,,,,,,,,,,,,,,,,,,,,,,,,,,,,,,,,,,,,,,,,,,,,,,,,,,,,,,,,,,,,,,,,,,,,,,,,,,,,,,,,,,
1606509426.166518,93.000000,0.000000,4166.922852,4189.102539,4183.205078,4190.897461,4185.384766,4186.666504,4202.692383,4199.615234,4186.153809,4139.871582,4177.051270,4194.871582,4188.974121,4191.794922,3301.000000,4.000000,,,,0.000000,4.000000,4.000000,4.000000,4.000000,4.000000,4.000000,4.000000,4.000000,4.000000,4.000000,4.000000,4.000000,4.000000,4.000000,100.000000,,,,,,,,,,,,,,,,,,,,,,,,,,,,,,,,,,,,,,,,,,,,,,,,,,,,,,,,,,,,,,,,,,,,,,,,,,,,,,,,,,,,,,,,,,,,,,,,,,,,,,,,,,,,,,,,,
1606509426.174327,94.000000,0.000000,4182.692383,4196.922852,4189.615234,4194.615234,4190.128418,4182.820313,4192.436035,4199.358887,4198.205078,4150.769043,4174.743652,4206.794922,4197.179688,4206.538574,3307.000000,4.000000,,,,0.000000,4.000000,4.000000,4.000000,4.000000,4.000000,4.000000,4.000000,4.000000,4.000000,4.000000,4.000000,4.000000,4.000000,4.000000,100.000000,,,,,,,,,,,,,,,,,,,,,,,,,,,,,,,,,,,,,,,,,,,,,,,,,,,,,,,,,,,,,,,,,,,,,,,,,,,,,,,,,,,,,,,,,,,,,,,,,,,,,,,,,,,,,,,,,
1606509426.182137,95.000000,0.000000,4182.436035,4209.358887,4190.000000,4208.077148,4197.051270,4184.487305,4198.205078,4205.897461,4215.000000,4154.743652,4196.922852,4213.461426,4204.615234,4215.256348,3316.000000,4.000000,,,,0.000000,4.000000,4.000000,4.000000,4.000000,4.000000,4.000000,4.000000,4.000000,4.000000,4.000000,4.000000,4.000000,4.000000,4.000000,100.000000,,,,,,,,,,,,,,,,,,,,,,,,,,,,,,,,,,,,,,,,,,,,,,,,,,,,,,,,,,,,,,,,,,,,,,,,,,,,,,,,,,,,,,,,,,,,,,,,,,,,,,,,,,,,,,,,,
1606509426.189946,96.000000,0.000000,4171.282227,4200.000000,4184.871582,4204.102539,4197.563965,4194.358887,4200.897461,4203.589844,4217.948730,4158.333496,4199.230957,4206.922852,4202.820313,4209.358887,3354.000000,4.000000,,,,0.000000,4.000000,4.000000,4.000000,4.000000,4.000000,4.000000,4.000000,4.000000,4.000000,4.000000,4.000000,4.000000,4.000000,4.000000,100.000000,24.000000,0.000000,0.685756,-0.007568,-0.724609,0.067993,0.992203,-0.086915,-0.050294,-17.346457,-84.788284,12.262150,,,,,,,,,,,,,,,,,,,,,,,,,,,,,,,,,,,,,,,,,,,,,,,,,,,,,,,,,,,,,,,,,,,,,,,,,,,,,,,,,,,,,,,,,,,,,,,,,,,,,
1606509426.197755,97.000000,0.000000,4169.358887,4186.410156,4176.538574,4188.461426,4191.794922,4192.563965,4192.179688,4195.641113,4204.871582,4141.410156,4173.333496,4200.000000,4195.000000,4198.974121,3301.000000,4.000000,,,,0.000000,4.000000,4.000000,4.000000,4.000000,4.000000,4.000000,4.000000,4.000000,4.000000,4.000000,4.000000,4.000000,4.000000,4.000000,100.000000,,,,,,,,,,,,,,,,,,,,,,,,,,,,,,,,,,,,,,,,,,,,,,,,,,,,,,,,,,,,,,,,,,,,,,,,,,,,,,,,,,,,,,,,,,,,,,,,,,,,,,,,,,,,,,,,,
1606509426.205565,98.000000,0.000000,4168.333496,4187.179688,4168.589844,4184.358887,4188.077148,4185.769043,4193.717773,4197.436035,4195.769043,4115.384766,4175.000000,4198.077148,4186.538574,4198.589844,3307.000000,4.000000,,,,0.000000,4.000000,4.000000,4.000000,4.000000,4.000000,4.000000,4.000000,4.000000,4.000000,4.000000,4.000000,4.000000,4.000000,4.000000,100.000000,,,,,,,,,,,,,,,,,,,,,,,,,,,,,,,,,,,,,,,,,,,,,,,,,,,,,,,,,,,,,,,,,,,,,,,,,,,,,,,,,,,,,,,,,,,,,,,,,,,,,,,,,,,,,,,,,
1606509426.213374,99.000000,0.000000,4163.077148,4193.205078,4171.794922,4187.563965,4189.615234,4189.102539,4196.794922,4194.871582,4195.641113,4118.205078,4195.769043,4197.051270,4184.230957,4205.128418,3316.000000,4.000000,,,,0.000000,4.000000,4.000000,4.000000,4.000000,4.000000,4.000000,4.000000,4.000000,4.000000,4.000000,4.000000,4.000000,4.000000,4.000000,100.000000,,,,,,,,,,,,,,,,,,,,,,,,,,,,,,,,,,,,,,,,,,,,,,,,,,,,,,,,,,,,,,,,,,,,,,,,,,,,,,,,,,,,,,,,,,,,,,,,,,,,,,,,,,,,,,,,,
1606509426.221184,100.000000,0.000000,4170.256348,4200.897461,4184.358887,4193.589844,4195.384766,4189.487305,4187.820313,4193.846191,4203.333496,4134.102539,4198.589844,4206.794922,4193.589844,4208.846191,3354.000000,4.000000,,,,0.000000,4.000000,4.000000,4.000000,4.000000,4.000000,4.000000,4.000000,4.000000,4.000000,4.000000,4.000000,4.000000,4.000000,4.000000,100.000000,25.000000,0.000000,0.684518,-0.009705,-0.726135,0.063782,1.002457,-0.087404,-0.059083,-17.196918,-82.993820,11.963073,,,,,,,,,,,,,,,,,,,,,,,,,,,,,,,,,,,,,,,,,,,,,,,,,,,,,,,,,,,,,,,,,,,,,,,,,,,,,,,,,,,,,,,,,,,,,,,,,,,,,
1606509426.228993,101.000000,0.000000,4182.179688,4203.077148,4186.794922,4200.769043,4199.743652,4181.794922,4183.333496,4198.589844,4210.000000,4139.487305,4188.205078,4215.512695,4203.589844,4213.974121,3301.000000,4.000000,,,,0.000000,4.000000,4.000000,4.000000,4.000000,4.000000,4.000000,4.000000,4.000000,4.000000,4.000000,4.000000,4.000000,4.000000,4.000000,100.000000,,,,,,,,,,,,,,,,,,,,,,,,,,,,,,,,,,,,,,,,,,,,,,,,,,,,,,,,,,,,,,,,,,,,,,,,,,,,,,,,,,,,,,,,,,,,,,,,,,,,,,,,,,,,,,,,,
1606509426.236703,102.000000,0.000000,4185.512695,4197.692383,4181.666504,4200.256348,4199.615234,4183.717773,4189.487305,4194.871582,4203.717773,4140.769043,4188.205078,4205.897461,4203.461426,4213.974121,3307.000000,4.000000,,,,0.000000,4.000000,4.000000,4.000000,4.000000,4.000000,4.000000,4.000000,4.000000,4.000000,4.000000,4.000000,4.000000,4.000000,4.000000,100.000000,,,,,,,,,,,,,,,,,,,,,,,,,,,,,,,,,,,,,,,,,,,,1.361149,1.853649,1.540747,0.469037,0.392809,0.496559,1.447850,1.016834,0.293662,0.303454,0.780326,1.401422,1.341173,0.377206,0.265979,0.311910,1.259749,1.030498,0.318099,0.232174,0.789191,0.537546,0.503979,0.510903,0.633635,0.579283,0.248110,0.420601,0.210745,0.196640,0.257793,0.452964,0.622244,0.334997,0.620916,0.352798,1.595162,0.925049,0.279187,0.477553,0.600276,2.411623,1.632516,0.499367,0.584482,1.097585,3.341808,2.330971,0.814214,0.576701,1.105652,2.384908,1.750631,0.739085,0.659619,1.002000,2.135453,1.254019,0.699071,0.345532,1.250985,2.186747,1.587778,0.652961,0.493171,1.425020,1.685243,1.630880,0.640968,0.421011
1606509426.244513,103.000000,0.000000,4186.538574,4199.230957,4191.794922,4198.333496,4196.153809,4188.333496,4191.410156,4198.205078,4203.333496,4141.922852,4192.948730,4208.846191,4201.538574,4212.948730,3316.000000,4.000000,,,,0.000000,4.000000,4.000000,4.000000,4.000000,4.000000,4.000000,4.000000,4.000000,4.000000,4.000000,4.000000,4.000000,4.000000,4.000000,100.000000,,,,,,,,,,,,,,,,,,,,,,,,,,,,,,,,,,,,,,,,,,,,,,,,,,,,,,,,,,,,,,,,,,,,,,,,,,,,,,,,,,,,,,,,,,,,,,,,,,,,,,,,,,,,,,,,,
1606509426.252323,104.000000,0.000000,4186.794922,4204.230957,4200.897461,4199.230957,4193.333496,4183.461426,4186.666504,4203.974121,4201.410156,4134.358887,4189.743652,4218.461426,4197.436035,4216.538574,3354.000000,4.000000,,,,0.000000,4.000000,4.000000,4.000000,4.000000,4.000000,4.000000,4.000000,4.000000,4.000000,4.000000,4.000000,4.000000,4.000000,4.000000,100.000000,26.000000,0.000000,0.683302,-0.011902,-0.727539,0.060364,0.992203,-0.094240,-0.057130,-18.243687,-84.339668,10.617228,,,,,,,,,,,,,,,,,,,,,,,,,,,,,,,,,,,,,,,,,,,,,,,,,,,,,,,,,,,,,,,,,,,,,,,,,,,,,,,,,,,,,,,,,,,,,,,,,,,,,
1606509426.260134,105.000000,0.000000,4186.794922,4203.717773,4192.820313,4199.615234,4196.025879,4180.512695,4184.615234,4192.820313,4187.307617,4119.358887,4188.974121,4207.820313,4193.846191,4215.384766,3301.000000,4.000000,,,,0.000000,4.000000,4.000000,4.000000,4.000000,4.000000,4.000000,4.000000,4.000000,4.000000,4.000000,4.000000,4.000000,4.000000,4.000000,100.000000,,,,,,,,,,,,,,,,,,,,,,,,,,,,,,,,,,,,,,,,,,,,,,,,,,,,,,,,,,,,,,,,,,,,,,,,,,,,,,,,,,,,,,,,,,,,,,,,,,,,,,,,,,,,,,,,,
1606509426.267944,106.000000,0.000000,4188.333496,4204.487305,4192.436035,4203.461426,4201.410156,4184.102539,4186.410156,4189.615234,4193.846191,4115.512695,4201.025879,4205.641113,4199.358887,4213.589844,3307.000000,4.000000,,,,0.000000,4.000000,4.000000,4.000000,4.000000,4.000000,4.000000,4.000000,4.000000,4.000000,4.000000,4.000000,4.000000,4.000000,4.000000,100.000000,,,,,,,,,,,,,,,,,,,,,,,,,,,,,,,,,,,,,,,,,,,,,,,,,,,,,,,,,,,,,,,,,,,,,,,,,,,,,,,,,,,,,,,,,,,,,,,,,,,,,,,,,,,,,,,,,
1606509426.275754,107.000000,0.000000,4188.205078,4204.615234,4199.871582,4203.846191,4202.820313,4187.307617,4188.461426,4203.589844,4212.563965,4115.000000,4199.487305,4214.615234,4196.410156,4207.820313,3316.000000,4.000000,,,,0.000000,4.000000,4.000000,4.000000,4.000000,4.000000,4.000000,4.000000,4.000000,4.000000,4.000000,4.000000,4.000000,4.000000,4.000000,100.000000,,,,,,,,,,,,,,,,,,,,,,,,,,,,,,,,,,,,,,,,,,,,,,,,,,,,,,,,,,,,,,,,,,,,,,,,,,,,,,,,,,,,,,,,,,,,,,,,,,,,,,,,,,,,,,,,,
1606509426.283564,108.000000,0.000000,4186.025879,4199.487305,4192.563965,4196.153809,4201.922852,4188.589844,4190.256348,4200.384766,4206.025879,4099.615234,4176.410156,4203.846191,4180.000000,4198.846191,3354.000000,4.000000,,,,0.000000,4.000000,4.000000,4.000000,4.000000,4.000000,4.000000,4.000000,4.000000,4.000000,4.000000,4.000000,4.000000,4.000000,4.000000,100.000000,27.000000,0.000000,0.682233,-0.014038,-0.728760,0.057190,1.015152,-0.095705,-0.062013,-16.748302,-84.190125,12.710765,,,,,,,,,,,,,,,,,,,,,,,,,,,,,,,,,,,,,,,,,,,,,,,,,,,,,,,,,,,,,,,,,,,,,,,,,,,,,,,,,,,,,,,,,,,,,,,,,,,,,
1606509426.291374,109.000000,0.000000,4179.743652,4201.538574,4183.589844,4196.666504,4201.666504,4185.384766,4197.051270,4196.794922,4198.205078,4094.487061,4183.461426,4195.256348,4186.282227,4205.000000,3301.000000,4.000000,,,,0.000000,4.000000,4.000000,4.000000,4.000000,4.000000,4.000000,4.000000,4.000000,4.000000,4.000000,4.000000,4.000000,4.000000,4.000000,100.000000,,,,,,,,,,,,,,,,,,,,,,,,,,,,,,,,,,,,,,,,,,,,,,,,,,,,,,,,,,,,,,,,,,,,,,,,,,,,,,,,,,,,,,,,,,,,,,,,,,,,,,,,,,,,,,,,,
1606509426.299184,110.000000,0.000000,4171.666504,4203.077148,4186.282227,4198.077148,4201.282227,4185.256348,4206.410156,4204.743652,4204.615234,4112.948730,4203.205078,4203.205078,4203.333496,4211.794922,3307.000000,4.000000,,,,0.000000,4.000000,4.000000,4.000000,4.000000,4.000000,4.000000,4.000000,4.000000,4.000000,4.000000,4.000000,4.000000,4.000000,4.000000,100.000000,,,,,,,,,,,,,,,,,,,,,,,,,,,,,,,,,,,,,,,,,,,,,,,,,,,,,,,,,,,,,,,,,,,,,,,,,,,,,,,,,,,,,,,,,,,,,,,,,,,,,,,,,,,,,,,,,
1606509426.306994,111.000000,0.000000,4173.717773,4195.769043,4187.948730,4187.563965,4207.179688,4195.641113,4202.436035,4199.230957,4207.179688,4121.538574,4193.461426,4202.179688,4198.077148,4201.025879,3316.000000,4.000000,,,,0.000000,4.000000,4.000000,4.000000,4.000000,4.000000,4.000000,4.000000,4.000000,4.000000,4.000000,4.000000,4.000000,4.000000,4.000000,100.000000,,,,,,,,,,,,,,,,,,,,,,,,,,,,,,,,,,,,,,,,,,,,,,,,,,,,,,,,,,,,,,,,,,,,,,,,,,,,,,,,,,,,,,,,,,,,,,,,,,,,,,,,,,,,,,,,,
1606509426.314702,112.000000,0.000000,4186.538574,4200.512695,4193.846191,4192.692383,4217.436035,4196.282227,4186.922852,4197.051270,4212.692383,4117.563965,4197.307617,4206.282227,4198.461426,4202.948730,3354.000000,4.000000,,,,0.000000,4.000000,4.000000,4.000000,4.000000,4.000000,4.000000,4.000000,4.000000,4.000000,4.000000,4.000000,4.000000,4.000000,4.000000,100.000000,28.000000,0.000000,0.681130,-0.016174,-0.729919,0.054932,1.010269,-0.089845,-0.068360,-17.047379,-84.339668,13.757534,,,,,,,,,,,,,,,,,,,,,,,,,,,,,,,,,,,,,,,,,,,,,,,,,,,,,,,,,,,,,,,,,,,,,,,,,,,,,,,,,,,,,,,,,,,,,,,,,,,,,
1606509426.322510,113.000000,0.000000,4189.743652,4214.230957,4201.538574,4211.666504,4219.615234,4185.128418,4184.358887,4211.025879,4221.410156,4125.512695,4216.794922,4220.512695,4213.974121,4222.563965,3301.000000,4.000000,,,,0.000000,4.000000,4.000000,4.000000,4.000000,4.000000,4.000000,4.000000,4.000000,4.000000,4.000000,4.000000,4.000000,4.000000,4.000000,100.000000,,,,,,,,,,,,,,,,,,,,,,,,,,,,,,,,,,,,,,,,,,,,,,,,,,,,,,,,,,,,,,,,,,,,,,,,,,,,,,,,,,,,,,,,,,,,,,,,,,,,,,,,,,,,,,,,,
1606509426.330318,114.000000,0.000000,4184.102539,4209.358887,4194.230957,4206.282227,4213.205078,4185.256348,4190.641113,4211.922852,4217.563965,4124.358887,4204.615234,4212.307617,4208.717773,4216.794922,3307.000000,4.000000,,,,0.000000,4.000000,4.000000,4.000000,4.000000,4.000000,4.000000,4.000000,4.000000,4.000000,4.000000,4.000000,4.000000,4.000000,4.000000,100.000000,,,,,,,,,,,,,,,,,,,,,,,,,,,,,,,,,,,,,,,,,,,,,,,,,,,,,,,,,,,,,,,,,,,,,,,,,,,,,,,,,,,,,,,,,,,,,,,,,,,,,,,,,,,,,,,,,
1606509426.338126,115.000000,0.000000,4183.717773,4198.077148,4184.743652,4191.025879,4212.051270,4189.230957,4185.000000,4193.333496,4205.000000,4106.025879,4180.000000,4194.358887,4188.974121,4195.128418,3316.000000,4.000000,,,,0.000000,4.000000,4.000000,4.000000,4.000000,4.000000,4.000000,4.000000,4.000000,4.000000,4.000000,4.000000,4.000000,4.000000,4.000000,100.000000,,,,,,,,,,,,,,,,,,,,,,,,,,,,,,,,,,,,,,,,,,,,,,,,,,,,,,,,,,,,,,,,,,,,,,,,,,,,,,,,,,,,,,,,,,,,,,,,,,,,,,,,,,,,,,,,,
1606509426.345934,116.000000,0.000000,4178.974121,4201.794922,4185.512695,4193.077148,4212.820313,4187.051270,4185.769043,4187.436035,4199.102539,4100.256348,4178.205078,4195.769043,4180.512695,4189.487305,3354.000000,4.000000,,,,0.000000,4.000000,4.000000,4.000000,4.000000,4.000000,4.000000,4.000000,4.000000,4.000000,4.000000,4.000000,4.000000,4.000000,4.000000,100.000000,29.000000,0.000000,0.679934,-0.017639,-0.731140,0.053040,1.019058,-0.091798,-0.065431,-18.243687,-85.835052,12.561227,,,,,,,,,,,,,,,,,,,,,,,,,,,,,,,,,,,,,,,,,,,,,,,,,,,,,,,,,,,,,,,,,,,,,,,,,,,,,,,,,,,,,,,,,,,,,,,,,,,,,
1606509426.353742,117.000000,0.000000,4167.051270,4203.205078,4185.897461,4198.846191,4211.025879,4189.615234,4198.333496,4198.205078,4209.871582,4115.256348,4189.871582,4203.974121,4190.128418,4200.256348,3301.000000,4.000000,,,,0.000000,4.000000,4.000000,4.000000,4.000000,4.000000,4.000000,4.000000,4.000000,4.000000,4.000000,4.000000,4.000000,4.000000,4.000000,100.000000,,,,,,,,,,,,,,,,,,,,,,,,,,,,,,,,,,,,,,,,,,,,,,,,,,,,,,,,,,,,,,,,,,,,,,,,,,,,,,,,,,,,,,,,,,,,,,,,,,,,,,,,,,,,,,,,,
1606509426.361550,118.000000,0.000000,4166.153809,4197.563965,4182.820313,4196.025879,4211.794922,4194.615234,4203.077148,4202.563965,4214.743652,4117.307617,4197.820313,4201.282227,4196.922852,4211.153809,3307.000000,4.000000,,,,0.000000,4.000000,4.000000,4.000000,4.000000,4.000000,4.000000,4.000000,4.000000,4.000000,4.000000,4.000000,4.000000,4.000000,4.000000,100.000000,,,,,,,,,,,,,,,,,,,,,,,,,,,,,,,,,,,,,,,,,,,,1.541452,2.087729,1.496768,0.542555,0.405103,0.417592,1.734431,0.901214,0.361244,0.300853,0.741438,1.397664,1.226782,0.424183,0.262876,0.300097,1.310952,0.951384,0.354953,0.233004,0.812400,0.622267,0.494589,0.390195,0.689130,0.570281,0.230481,0.390854,0.261261,0.223653,0.280511,0.516738,0.702927,0.368312,0.703137,0.391642,1.754986,1.068086,0.239696,0.482118,0.641092,2.585772,1.873894,0.443905,0.570234,1.451735,2.822521,2.369119,0.784817,0.522405,1.153636,2.149346,1.735865,0.713946,0.691743,1.075553,1.732339,1.139105,0.723369,0.362579,1.373598,1.886316,1.524294,0.703919,0.495351,1.746640,1.692474,1.676242,0.787287,0.417440
1606509426.369358,119.000000,0.000000,4179.358887,4205.512695,4192.436035,4202.051270,4214.871582,4195.256348,4207.436035,4207.820313,4210.256348,4110.384766,4211.538574,4205.512695,4200.769043,4215.641113,3316.000000,4.000000,,,,0.000000,4.000000,4.000000,4.000000,4.000000,4.000000,4.000000,4.000000,4.000000,4.000000,4.000000,4.000000,4.000000,4.000000,4.000000,100.000000,,,,,,,,,,,,,,,,,,,,,,,,,,,,,,,,,,,,,,,,,,,,,,,,,,,,,,,,,,,,,,,,,,,,,,,,,,,,,,,,,,,,,,,,,,,,,,,,,,,,,,,,,,,,,,,,,
1606509426.377068,120.000000,0.000000,4186.153809,4213.077148,4205.384766,4209.615234,4217.179688,4199.487305,4216.922852,4217.307617,4217.307617,4119.487305,4222.563965,4217.820313,4214.102539,4215.512695,3354.000000,4.000000,,,,0.000000,4.000000,4.000000,4.000000,4.000000,4.000000,4.000000,4.000000,4.000000,4.000000,4.000000,4.000000,4.000000,4.000000,4.000000,100.000000,30.000000,0.000000,0.679234,-0.018555,-0.731812,0.052429,1.024918,-0.108400,-0.076661,-19.290455,-84.937820,13.159381,,,,,,,,,,,,,,,,,,,,,,,,,,,,,,,,,,,,,,,,,,,,,,,,,,,,,,,,,,,,,,,,,,,,,,,,,,,,,,,,,,,,,,,,,,,,,,,,,,,,,
1606509426.384878,121.000000,0.000000,4181.153809,4209.743652,4201.282227,4205.512695,4215.256348,4204.230957,4219.743652,4213.846191,4220.512695,4123.846191,4211.666504,4218.717773,4216.922852,4210.384766,3301.000000,4.000000,,,,0.000000,4.000000,4.000000,4.000000,4.000000,4.000000,4.000000,4.000000,4.000000,4.000000,4.000000,4.000000,4.000000,4.000000,4.000000,100.000000,,,,,,,,,,,,,,,,,,,,,,,,,,,,,,,,,,,,,,,,,,,,,,,,,,,,,,,,,,,,,,,,,,,,,,,,,,,,,,,,,,,,,,,,,,,,,,,,,,,,,,,,,,,,,,,,,
1606509426.392688,122.000000,0.000000,4183.333496,4213.077148,4198.717773,4206.794922,4215.769043,4198.333496,4208.333496,4204.871582,4213.974121,4112.948730,4199.102539,4212.436035,4204.230957,4207.307617,3307.000000,4.000000,,,,0.000000,4.000000,4.000000,4.000000,4.000000,4.000000,4.000000,4.000000,4.000000,4.000000,4.000000,4.000000,4.000000,4.000000,4.000000,100.000000,,,,,,,,,,,,,,,,,,,,,,,,,,,,,,,,,,,,,,,,,,,,,,,,,,,,,,,,,,,,,,,,,,,,,,,,,,,,,,,,,,,,,,,,,,,,,,,,,,,,,,,,,,,,,,,,,
1606509426.400498,123.000000,0.000000,4189.871582,4213.461426,4203.205078,4205.000000,4218.717773,4186.153809,4189.487305,4204.230957,4216.282227,4104.743652,4204.230957,4206.410156,4197.051270,4206.922852,3316.000000,4.000000,,,,0.000000,4.000000,4.000000,4.000000,4.000000,4.000000,4.000000,4.000000,4.000000,4.000000,4.000000,4.000000,4.000000,4.000000,4.000000,100.000000,,,,,,,,,,,,,,,,,,,,,,,,,,,,,,,,,,,,,,,,,,,,,,,,,,,,,,,,,,,,,,,,,,,,,,,,,,,,,,,,,,,,,,,,,,,,,,,,,,,,,,,,,,,,,,,,,
1606509426.408308,124.000000,0.000000,4170.641113,4196.153809,4187.563965,4190.256348,4214.358887,4183.077148,4179.358887,4197.436035,4206.410156,4088.333252,4201.922852,4190.000000,4188.077148,4192.948730,3354.000000,4.000000,,,,0.000000,4.000000,4.000000,4.000000,4.000000,4.000000,4.000000,4.000000,4.000000,4.000000,4.000000,4.000000,4.000000,4.000000,4.000000,100.000000,31.000000,0.000000,0.677836,-0.020325,-0.733154,0.051086,1.015640,-0.101564,-0.083986,-18.692303,-85.087357,11.065843,,,,,,,,,,,,,,,,,,,,,,,,,,,,,,,,,,,,,,,,,,,,,,,,,,,,,,,,,,,,,,,,,,,,,,,,,,,,,,,,,,,,,,,,,,,,,,,,,,,,,
1606509426.416117,125.000000,0.000000,4137.051270,4178.333496,4162.563965,4178.461426,4206.666504,4192.820313,4190.256348,4186.666504,4185.641113,4061.410156,4171.282227,4167.436035,4160.000000,4169.615234,3301.000000,4.000000,,,,0.000000,4.000000,4.000000,4.000000,4.000000,4.000000,4.000000,4.000000,4.000000,4.000000,4.000000,4.000000,4.000000,4.000000,4.000000,100.000000,,,,,,,,,,,,,,,,,,,,,,,,,,,,,,,,,,,,,,,,,,,,,,,,,,,,,,,,,,,,,,,,,,,,,,,,,,,,,,,,,,,,,,,,,,,,,,,,,,,,,,,,,,,,,,,,,
1606509426.423927,126.000000,0.000000,4139.102539,4178.077148,4163.589844,4179.230957,4210.256348,4204.487305,4200.384766,4184.871582,4188.333496,4062.179443,4158.333496,4160.128418,4151.025879,4165.256348,3307.000000,4.000000,,,,0.000000,4.000000,4.000000,4.000000,4.000000,4.000000,4.000000,4.000000,4.000000,4.000000,4.000000,4.000000,4.000000,4.000000,4.000000,100.000000,,,,,,,,,,,,,,,,,,,,,,,,,,,,,,,,,,,,,,,,,,,,,,,,,,,,,,,,,,,,,,,,,,,,,,,,,,,,,,,,,,,,,,,,,,,,,,,,,,,,,,,,,,,,,,,,,
1606509426.431737,127.000000,0.000000,4170.897461,4196.666504,4185.641113,4187.436035,4219.743652,4199.743652,4188.974121,4188.205078,4205.512695,4089.358887,4188.846191,4175.512695,4178.461426,4188.205078,53.000000,4.000000,,,,0.000000,4.000000,4.000000,4.000000,4.000000,4.000000,4.000000,4.000000,4.000000,4.000000,4.000000,4.000000,4.000000,4.000000,4.000000,100.000000,,,,,,,,,,,,,,,,,,,,,,,,,,,,,,,,,,,,,,,,,,,,,,,,,,,,,,,,,,,,,,,,,,,,,,,,,,,,,,,,,,,,,,,,,,,,,,,,,,,,,,,,,,,,,,,,,
1606509426.439547,0.000000,0.000000,4187.051270,4212.692383,4198.717773,4198.205078,4221.410156,4187.563965,4182.563965,4199.871582,4219.230957,4104.743652,4209.358887,4198.974121,4199.871582,4203.205078,3372.000000,4.000000,,,,0.000000,4.000000,4.000000,4.000000,4.000000,4.000000,4.000000,4.000000,4.000000,4.000000,4.000000,4.000000,4.000000,4.000000,4.000000,100.000000,0.000000,0.000000,0.676708,-0.021973,-0.734253,0.049561,1.019547,-0.116213,-0.087404,-18.841841,-84.190125,13.458457,,,,,,,,,,,,,,,,,,,,,,,,,,,,,,,,,,,,,,,,,,,,,,,,,,,,,,,,,,,,,,,,,,,,,,,,,,,,,,,,,,,,,,,,,,,,,,,,,,,,,
1606509426.447257,1.000000,0.000000,4182.436035,4208.461426,4193.846191,4203.846191,4218.205078,4184.230957,4194.102539,4205.128418,4221.410156,4098.205078,4190.641113,4205.256348,4200.256348,4193.333496,3495.000000,4.000000,,,,0.000000,4.000000,4.000000,4.000000,4.000000,4.000000,4.000000,4.000000,4.000000,4.000000,4.000000,4.000000,4.000000,4.000000,4.000000,100.000000,,,,,,,,,,,,,,,,,,,,,,,,,,,,,,,,,,,,,,,,,,,,,,,,,,,,,,,,,,,,,,,,,,,,,,,,,,,,,,,,,,,,,,,,,,,,,,,,,,,,,,,,,,,,,,,,,
1606509426.455066,2.000000,0.000000,4180.256348,4206.025879,4190.000000,4200.769043,4215.641113,4187.563965,4201.666504,4190.897461,4209.102539,4091.666748,4189.358887,4198.974121,4198.589844,4189.230957,3531.000000,4.000000,,,,0.000000,4.000000,4.000000,4.000000,4.000000,4.000000,4.000000,4.000000,4.000000,4.000000,4.000000,4.000000,4.000000,4.000000,4.000000,100.000000,,,,,,,,,,,,,,,,,,,,,,,,,,,,,,,,,,,,,,,,,,,,,,,,,,,,,,,,,,,,,,,,,,,,,,,,,,,,,,,,,,,,,,,,,,,,,,,,,,,,,,,,,,,,,,,,,
1606509426.462876,3.000000,0.000000,4184.871582,4215.384766,4195.641113,4203.077148,4215.769043,4188.461426,4191.538574,4180.000000,4194.102539,4090.128174,4217.948730,4198.333496,4203.077148,4201.153809,3415.000000,4.000000,,,,0.000000,4.000000,4.000000,4.000000,4.000000,4.000000,4.000000,4.000000,4.000000,4.000000,4.000000,4.000000,4.000000,4.000000,4.000000,100.000000,,,,,,,,,,,,,,,,,,,,,,,,,,,,,,,,,,,,,,,,,,,,,,,,,,,,,,,,,,,,,,,,,,,,,,,,,,,,,,,,,,,,,,,,,,,,,,,,,,,,,,,,,,,,,,,,,
1606509426.470686,4.000000,0.000000,4193.205078,4219.358887,4200.128418,4208.974121,4218.461426,4185.000000,4182.051270,4193.717773,4196.410156,4088.205078,4219.487305,4201.025879,4206.153809,4205.769043,3387.000000,4.000000,,,,0.000000,4.000000,4.000000,4.000000,4.000000,4.000000,4.000000,4.000000,4.000000,4.000000,4.000000,4.000000,4.000000,4.000000,4.000000,100.000000,1.000000,0.000000,0.675564,-0.023621,-0.735352,0.048096,1.025895,-0.106935,-0.098634,-18.692303,-85.835052,11.364920,,,,,,,,,,,,,,,,,,,,,,,,,,,,,,,,,,,,,,,,,,,,,,,,,,,,,,,,,,,,,,,,,,,,,,,,,,,,,,,,,,,,,,,,,,,,,,,,,,,,,
1606509426.478495,5.000000,0.000000,4193.846191,4211.282227,4193.077148,4203.717773,4217.436035,4183.461426,4191.922852,4206.794922,4201.794922,4088.461426,4196.025879,4194.871582,4199.743652,4196.025879,3269.000000,4.000000,,,,0.000000,4.000000,4.000000,4.000000,4.000000,4.000000,4.000000,4.000000,4.000000,4.000000,4.000000,4.000000,4.000000,4.000000,4.000000,100.000000,,,,,,,,,,,,,,,,,,,,,,,,,,,,,,,,,,,,,,,,,,,,,,,,,,,,,,,,,,,,,,,,,,,,,,,,,,,,,,,,,,,,,,,,,,,,,,,,,,,,,,,,,,,,,,,,,
1606509426.486305,6.000000,0.000000,4185.897461,4209.871582,4185.512695,4202.436035,4222.307617,4183.717773,4197.820313,4197.436035,4199.615234,4088.846191,4193.333496,4191.538574,4195.128418,4191.922852,2911.000000,4.000000,,,,0.000000,4.000000,4.000000,4.000000,4.000000,4.000000,4.000000,4.000000,4.000000,4.000000,4.000000,4.000000,4.000000,4.000000,4.000000,100.000000,,,,,,,,,,,,,,,,,,,,,,,,,,,,,,,,,,,,,,,,,,,,1.947093,2.376307,1.507244,0.696837,0.455557,0.398341,1.979810,0.821547,0.464054,0.314354,0.821794,1.468247,1.153228,0.513376,0.280709,0.318612,1.358621,0.881562,0.425025,0.247768,0.832387,0.707392,0.514807,0.305421,0.747219,0.578421,0.231715,0.377255,0.309281,0.252925,0.296998,0.574118,0.774917,0.426322,0.775307,0.415712,1.829732,1.124922,0.202446,0.490376,0.682657,2.694348,2.054410,0.449566,0.596715,1.837677,2.404420,2.362994,0.826664,0.522649,1.272604,1.854475,1.633053,0.709626,0.749688,1.226807,1.426941,1.057551,0.776759,0.400404,1.639757,1.616926,1.514645,0.797365,0.516558,2.329987,1.760949,1.726723,0.991038,0.430134
1606509426.494115,7.000000,0.000000,4183.077148,4213.077148,4185.769043,4207.436035,4225.000000,4180.769043,4185.641113,4183.205078,4200.000000,4087.179443,4203.717773,4197.436035,4198.846191,4196.153809,2580.000000,4.000000,,,,0.000000,4.000000,4.000000,4.000000,4.000000,4.000000,4.000000,4.000000,4.000000,4.000000,4.000000,4.000000,4.000000,4.000000,4.000000,100.000000,,,,,,,,,,,,,,,,,,,,,,,,,,,,,,,,,,,,,,,,,,,,,,,,,,,,,,,,,,,,,,,,,,,,,,,,,,,,,,,,,,,,,,,,,,,,,,,,,,,,,,,,,,,,,,,,,
1606509426.501924,8.000000,0.000000,4187.692383,4212.436035,4189.102539,4204.615234,4222.307617,4183.461426,4182.179688,4188.077148,4204.358887,4092.179443,4206.025879,4198.077148,4198.333496,4199.230957,3265.000000,4.000000,,,,0.000000,4.000000,4.000000,4.000000,4.000000,4.000000,4.000000,4.000000,4.000000,4.000000,4.000000,4.000000,4.000000,4.000000,4.000000,100.000000,2.000000,0.000000,0.674451,-0.025146,-0.736389,0.047058,1.007828,-0.109865,-0.083497,-17.944611,-84.190125,11.663997,,,,,,,,,,,,,,,,,,,,,,,,,,,,,,,,,,,,,,,,,,,,,,,,,,,,,,,,,,,,,,,,,,,,,,,,,,,,,,,,,,,,,,,,,,,,,,,,,,,,,
1606509426.509734,9.000000,0.000000,4191.410156,4204.487305,4188.846191,4197.692383,4225.000000,4195.769043,4197.948730,4195.897461,4208.589844,4093.333252,4195.000000,4188.846191,4189.102539,4191.153809,3564.000000,4.000000,,,,0.000000,4.000000,4.000000,4.000000,4.000000,4.000000,4.000000,4.000000,4.000000,4.000000,4.000000,4.000000,4.000000,4.000000,4.000000,100.000000,,,,,,,,,,,,,,,,,,,,,,,,,,,,,,,,,,,,,,,,,,,,,,,,,,,,,,,,,,,,,,,,,,,,,,,,,,,,,,,,,,,,,,,,,,,,,,,,,,,,,,,,,,,,,,,,,
1606509426.517444,10.000000,0.000000,4180.897461,4198.205078,4180.512695,4196.794922,4224.230957,4199.871582,4208.589844,4190.512695,4203.333496,4071.410156,4173.846191,4177.307617,4182.436035,4174.871582,3299.000000,4.000000,,,,0.000000,4.000000,4.000000,4.000000,4.000000,4.000000,4.000000,4.000000,4.000000,4.000000,4.000000,4.000000,4.000000,4.000000,4.000000,100.000000,,,,,,,,,,,,,,,,,,,,,,,,,,,,,,,,,,,,,,,,,,,,,,,,,,,,,,,,,,,,,,,,,,,,,,,,,,,,,,,,,,,,,,,,,,,,,,,,,,,,,,,,,,,,,,,,,
1606509426.525253,11.000000,0.000000,4171.922852,4209.358887,4180.897461,4201.666504,4222.820313,4185.641113,4195.512695,4193.461426,4198.974121,4064.102539,4179.871582,4182.820313,4185.769043,4178.205078,3304.000000,4.000000,,,,0.000000,4.000000,4.000000,4.000000,4.000000,4.000000,4.000000,4.000000,4.000000,4.000000,4.000000,4.000000,4.000000,4.000000,4.000000,100.000000,,,,,,,,,,,,,,,,,,,,,,,,,,,,,,,,,,,,,,,,,,,,,,,,,,,,,,,,,,,,,,,,,,,,,,,,,,,,,,,,,,,,,,,,,,,,,,,,,,,,,,,,,,,,,,,,,
1606509426.533063,12.000000,0.000000,4170.256348,4217.051270,4187.563965,4202.820313,4229.615234,4183.205078,4188.077148,4201.794922,4199.743652,4079.871826,4204.743652,4194.230957,4190.000000,4191.025879,3339.000000,4.000000,,,,0.000000,4.000000,4.000000,4.000000,4.000000,4.000000,4.000000,4.000000,4.000000,4.000000,4.000000,4.000000,4.000000,4.000000,4.000000,100.000000,3.000000,0.000000,0.673748,-0.026428,-0.737061,0.045898,1.022965,-0.116701,-0.090822,-17.645533,-85.685509,12.411689,,,,,,,,,,,,,,,,,,,,,,,,,,,,,,,,,,,,,,,,,,,,,,,,,,,,,,,,,,,,,,,,,,,,,,,,,,,,,,,,,,,,,,,,,,,,,,,,,,,,,
1606509426.540873,13.000000,0.000000,4168.461426,4204.102539,4180.897461,4193.974121,4228.974121,4196.538574,4200.384766,4199.230957,4199.743652,4076.794922,4205.641113,4189.871582,4184.615234,4187.436035,3293.000000,4.000000,,,,0.000000,4.000000,4.000000,4.000000,4.000000,4.000000,4.000000,4.000000,4.000000,4.000000,4.000000,4.000000,4.000000,4.000000,4.000000,100.000000,,,,,,,,,,,,,,,,,,,,,,,,,,,,,,,,,,,,,,,,,,,,,,,,,,,,,,,,,,,,,,,,,,,,,,,,,,,,,,,,,,,,,,,,,,,,,,,,,,,,,,,,,,,,,,,,,
1606509426.548682,14.000000,0.000000,4176.922852,4196.538574,4175.128418,4191.794922,4226.025879,4194.743652,4203.717773,4201.025879,4204.743652,4072.435791,4201.153809,4183.846191,4184.615234,4180.512695,3299.000000,4.000000,,,,0.000000,4.000000,4.000000,4.000000,4.000000,4.000000,4.000000,4.000000,4.000000,4.000000,4.000000,4.000000,4.000000,4.000000,4.000000,100.000000,,,,,,,,,,,,,,,,,,,,,,,,,,,,,,,,,,,,,,,,,,,,,,,,,,,,,,,,,,,,,,,,,,,,,,,,,,,,,,,,,,,,,,,,,,,,,,,,,,,,,,,,,,,,,,,,,
1606509426.556492,15.000000,0.000000,4184.871582,4211.153809,4181.538574,4206.153809,4231.922852,4185.897461,4189.615234,4200.384766,4203.974121,4083.718018,4202.820313,4190.384766,4192.692383,4186.025879,3304.000000,4.000000,,,,0.000000,4.000000,4.000000,4.000000,4.000000,4.000000,4.000000,4.000000,4.000000,4.000000,4.000000,4.000000,4.000000,4.000000,4.000000,100.000000,,,,,,,,,,,,,,,,,,,,,,,,,,,,,,,,,,,,,,,,,,,,,,,,,,,,,,,,,,,,,,,,,,,,,,,,,,,,,,,,,,,,,,,,,,,,,,,,,,,,,,,,,,,,,,,,,
1606509426.564302,16.000000,0.000000,4174.743652,4218.589844,4180.384766,4208.974121,4228.333496,4187.563965,4185.128418,4190.641113,4195.000000,4083.589844,4189.358887,4190.256348,4189.487305,4187.179688,0.000000,4.000000,,,,0.000000,4.000000,4.000000,4.000000,4.000000,4.000000,4.000000,4.000000,4.000000,4.000000,4.000000,4.000000,4.000000,4.000000,4.000000,100.000000,4.000000,0.000000,0.673014,-0.027649,-0.737732,0.045166,1.025895,-0.117189,-0.088869,-18.243687,-83.891052,12.262150,,,,,,,,,,,,,,,,,,,,,,,,,,,,,,,,,,,,,,,,,,,,,,,,,,,,,,,,,,,,,,,,,,,,,,,,,,,,,,,,,,,,,,,,,,,,,,,,,,,,,
1606509426.572111,17.000000,0.000000,4167.436035,4211.922852,4175.512695,4197.692383,4217.051270,4185.641113,4188.846191,4187.307617,4194.871582,4080.641113,4190.512695,4182.436035,4187.563965,4182.051270,0.000000,4.000000,,,,0.000000,4.000000,4.000000,4.000000,4.000000,4.000000,4.000000,4.000000,4.000000,4.000000,4.000000,4.000000,4.000000,4.000000,4.000000,100.000000,,,,,,,,,,,,,,,,,,,,,,,,,,,,,,,,,,,,,,,,,,,,,,,,,,,,,,,,,,,,,,,,,,,,,,,,,,,,,,,,,,,,,,,,,,,,,,,,,,,,,,,,,,,,,,,,,
1606509426.579823,18.000000,0.000000,4181.410156,4215.256348,4180.384766,4199.615234,4222.563965,4183.461426,4184.743652,4189.487305,4206.410156,4092.435791,4213.077148,4186.922852,4199.615234,4185.512695,0.000000,4.000000,,,,0.000000,4.000000,4.000000,4.000000,4.000000,4.000000,4.000000,4.000000,4.000000,4.000000,4.000000,4.000000,4.000000,4.000000,4.000000,100.000000,,,,,,,,,,,,,,,,,,,,,,,,,,,,,,,,,,,,,,,,,,,,,,,,,,,,,,,,,,,,,,,,,,,,,,,,,,,,,,,,,,,,,,,,,,,,,,,,,,,,,,,,,,,,,,,,,
1606509426.587634,19.000000,0.000000,4182.051270,4217.051270,4176.025879,4203.205078,4226.282227,4196.025879,4195.897461,4190.128418,4199.358887,4087.564209,4199.230957,4187.692383,4194.102539,4185.128418,0.000000,4.000000,,,,0.000000,4.000000,4.000000,4.000000,4.000000,4.000000,4.000000,4.000000,4.000000,4.000000,4.000000,4.000000,4.000000,4.000000,4.000000,100.000000,,,,,,,,,,,,,,,,,,,,,,,,,,,,,,,,,,,,,,,,,,,,,,,,,,,,,,,,,,,,,,,,,,,,,,,,,,,,,,,,,,,,,,,,,,,,,,,,,,,,,,,,,,,,,,,,,
1606509426.595446,20.000000,0.000000,4171.666504,4216.666504,4171.922852,4201.153809,4224.230957,4202.051270,4202.179688,4197.051270,4186.282227,4073.718018,4181.538574,4184.487305,4181.922852,4183.589844,0.000000,4.000000,,,,0.000000,4.000000,4.000000,4.000000,4.000000,4.000000,4.000000,4.000000,4.000000,4.000000,4.000000,4.000000,4.000000,4.000000,4.000000,100.000000,5.000000,0.000000,0.672401,-0.028564,-0.738281,0.044739,1.006363,-0.117189,-0.099123,-18.243687,-85.087357,12.561227,,,,,,,,,,,,,,,,,,,,,,,,,,,,,,,,,,,,,,,,,,,,,,,,,,,,,,,,,,,,,,,,,,,,,,,,,,,,,,,,,,,,,,,,,,,,,,,,,,,,,
1606509426.603257,21.000000,0.000000,4180.769043,4223.205078,4187.307617,4204.615234,4228.461426,4190.128418,4192.051270,4199.102539,4191.025879,4083.205078,4198.589844,4196.025879,4193.077148,4188.077148,0.000000,4.000000,,,,0.000000,4.000000,4.000000,4.000000,4.000000,4.000000,4.000000,4.000000,4.000000,4.000000,4.000000,4.000000,4.000000,4.000000,4.000000,100.000000,,,,,,,,,,,,,,,,,,,,,,,,,,,,,,,,,,,,,,,,,,,,,,,,,,,,,,,,,,,,,,,,,,,,,,,,,,,,,,,,,,,,,,,,,,,,,,,,,,,,,,,,,,,,,,,,,
1606509426.611069,22.000000,0.000000,4179.871582,4221.666504,4186.025879,4202.436035,4223.846191,4186.153809,4194.615234,4188.717773,4189.743652,4084.230713,4199.487305,4197.692383,4195.512695,4182.692383,0.000000,4.000000,,,,0.000000,4.000000,4.000000,4.000000,4.000000,4.000000,4.000000,4.000000,4.000000,4.000000,4.000000,4.000000,4.000000,4.000000,4.000000,100.000000,,,,,,,,,,,,,,,,,,,,,,,,,,,,,,,,,,,,,,,,,,,,2.715712,2.596262,1.533502,0.923752,0.546573,0.459814,2.068163,0.754846,0.589234,0.344311,1.069733,1.552439,1.104144,0.635786,0.310804,0.385431,1.360096,0.801940,0.516500,0.277232,0.828430,0.746570,0.547569,0.273940,0.780533,0.586018,0.259096,0.387772,0.337794,0.278151,0.307980,0.633862,0.832074,0.489177,0.815510,0.421247,1.794533,1.078956,0.174133,0.491644,0.730687,2.706120,2.081776,0.516726,0.637584,2.176630,2.204610,2.253705,0.953656,0.571414,1.534328,1.556917,1.471260,0.740588,0.817086,1.515148,1.280257,1.014404,0.856885,0.442396,2.054463,1.413970,1.535957,0.934441,0.548486,3.283067,1.883255,1.753370,1.218409,0.451315
1606509426.618881,23.000000,0.000000,4171.153809,4212.051270,4173.205078,4195.512695,4220.641113,4192.179688,4199.487305,4193.846191,4186.538574,4075.128174,4185.000000,4190.256348,4182.820313,4175.641113,0.000000,4.000000,,,,0.000000,4.000000,4.000000,4.000000,4.000000,4.000000,4.000000,4.000000,4.000000,4.000000,4.000000,4.000000,4.000000,4.000000,4.000000,100.000000,,,,,,,,,,,,,,,,,,,,,,,,,,,,,,,,,,,,,,,,,,,,,,,,,,,,,,,,,,,,,,,,,,,,,,,,,,,,,,,,,,,,,,,,,,,,,,,,,,,,,,,,,,,,,,,,,
1606509426.626692,24.000000,0.000000,4175.769043,4213.077148,4179.743652,4194.230957,4226.666504,4188.846191,4184.871582,4199.102539,4198.846191,4085.769287,4193.461426,4196.282227,4184.102539,4183.333496,0.000000,4.000000,,,,0.000000,4.000000,4.000000,4.000000,4.000000,4.000000,4.000000,4.000000,4.000000,4.000000,4.000000,4.000000,4.000000,4.000000,4.000000,100.000000,6.000000,0.000000,0.672001,-0.029175,-0.738647,0.044312,1.017594,-0.113771,-0.096681,-17.346457,-85.535973,11.364920,,,,,,,,,,,,,,,,,,,,,,,,,,,,,,,,,,,,,,,,,,,,,,,,,,,,,,,,,,,,,,,,,,,,,,,,,,,,,,,,,,,,,,,,,,,,,,,,,,,,,
1606509426.634504,25.000000,0.000000,4176.153809,4217.436035,4182.051270,4196.666504,4226.794922,4184.871582,4178.205078,4186.153809,4204.615234,4097.692383,4207.436035,4203.589844,4187.051270,4188.461426,0.000000,4.000000,,,,0.000000,4.000000,4.000000,4.000000,4.000000,4.000000,4.000000,4.000000,4.000000,4.000000,4.000000,4.000000,4.000000,4.000000,4.000000,100.000000,,,,,,,,,,,,,,,,,,,,,,,,,,,,,,,,,,,,,,,,,,,,,,,,,,,,,,,,,,,,,,,,,,,,,,,,,,,,,,,,,,,,,,,,,,,,,,,,,,,,,,,,,,,,,,,,,
1606509426.642315,26.000000,0.000000,4166.794922,4211.153809,4170.512695,4196.025879,4221.538574,4196.153809,4198.461426,4188.333496,4197.436035,4092.820557,4202.948730,4201.794922,4184.102539,4182.948730,0.000000,4.000000,,,,0.000000,4.000000,4.000000,4.000000,4.000000,4.000000,4.000000,4.000000,4.000000,4.000000,4.000000,4.000000,4.000000,4.000000,4.000000,100.000000,,,,,,,,,,,,,,,,,,,,,,,,,,,,,,,,,,,,,,,,,,,,,,,,,,,,,,,,,,,,,,,,,,,,,,,,,,,,,,,,,,,,,,,,,,,,,,,,,,,,,,,,,,,,,,,,,
1606509426.650127,27.000000,0.000000,4166.922852,4208.717773,4170.256348,4194.230957,4223.589844,4197.179688,4202.179688,4203.333496,4197.820313,4086.794922,4191.410156,4198.205078,4184.743652,4181.153809,0.000000,4.000000,,,,0.000000,4.000000,4.000000,4.000000,4.000000,4.000000,4.000000,4.000000,4.000000,4.000000,4.000000,4.000000,4.000000,4.000000,4.000000,100.000000,,,,,,,,,,,,,,,,,,,,,,,,,,,,,,,,,,,,,,,,,,,,,,,,,,,,,,,,,,,,,,,,,,,,,,,,,,,,,,,,,,,,,,,,,,,,,,,,,,,,,,,,,,,,,,,,,
1606509426.657829,28.000000,0.000000,4171.025879,4216.282227,4174.358887,4195.897461,4224.358887,4183.205078,4183.974121,4196.282227,4197.563965,4090.384521,4188.333496,4188.974121,4185.897461,4177.436035,0.000000,4.000000,,,,0.000000,4.000000,4.000000,4.000000,4.000000,4.000000,4.000000,4.000000,4.000000,4.000000,4.000000,4.000000,4.000000,4.000000,4.000000,100.000000,7.000000,0.000000,0.671812,-0.029358,-0.738831,0.044006,1.024430,-0.126955,-0.104494,-18.841841,-85.236893,10.916305,,,,,,,,,,,,,,,,,,,,,,,,,,,,,,,,,,,,,,,,,,,,,,,,,,,,,,,,,,,,,,,,,,,,,,,,,,,,,,,,,,,,,,,,,,,,,,,,,,,,,
1606509426.665630,29.000000,0.000000,4166.282227,4216.922852,4169.743652,4197.436035,4219.358887,4189.871582,4184.743652,4179.358887,4191.153809,4093.974365,4194.102539,4179.358887,4182.307617,4170.769043,0.000000,4.000000,,,,0.000000,4.000000,4.000000,4.000000,4.000000,4.000000,4.000000,4.000000,4.000000,4.000000,4.000000,4.000000,4.000000,4.000000,4.000000,100.000000,,,,,,,,,,,,,,,,,,,,,,,,,,,,,,,,,,,,,,,,,,,,,,,,,,,,,,,,,,,,,,,,,,,,,,,,,,,,,,,,,,,,,,,,,,,,,,,,,,,,,,,,,,,,,,,,,
1606509426.673340,30.000000,0.000000,4174.230957,4213.846191,4175.641113,4197.692383,4226.410156,4199.743652,4191.410156,4185.000000,4195.128418,4098.333496,4202.692383,4185.512695,4182.948730,4177.948730,0.000000,4.000000,,,,0.000000,4.000000,4.000000,4.000000,4.000000,4.000000,4.000000,4.000000,4.000000,4.000000,4.000000,4.000000,4.000000,4.000000,4.000000,100.000000,,,,,,,,,,,,,,,,,,,,,,,,,,,,,,,,,,,,,,,,,,,,,,,,,,,,,,,,,,,,,,,,,,,,,,,,,,,,,,,,,,,,,,,,,,,,,,,,,,,,,,,,,,,,,,,,,
1606509426.681150,31.000000,0.000000,4182.436035,4214.487305,4182.563965,4196.922852,4225.641113,4189.358887,4186.922852,4188.205078,4191.025879,4094.615479,4198.846191,4191.282227,4186.282227,4183.846191,0.000000,4.000000,,,,0.000000,4.000000,4.000000,4.000000,4.000000,4.000000,4.000000,4.000000,4.000000,4.000000,4.000000,4.000000,4.000000,4.000000,4.000000,100.000000,,,,,,,,,,,,,,,,,,,,,,,,,,,,,,,,,,,,,,,,,,,,,,,,,,,,,,,,,,,,,,,,,,,,,,,,,,,,,,,,,,,,,,,,,,,,,,,,,,,,,,,,,,,,,,,,,
1606509426.688960,32.000000,0.000000,4179.230957,4216.282227,4179.102539,4200.256348,4215.641113,4187.820313,4188.461426,4180.256348,4183.974121,4090.769287,4193.333496,4189.743652,4191.666504,4180.256348,0.000000,4.000000,,,,0.000000,4.000000,4.000000,4.000000,4.000000,4.000000,4.000000,4.000000,4.000000,4.000000,4.000000,4.000000,4.000000,4.000000,4.000000,100.000000,8.000000,0.000000,0.671488,-0.029541,-0.739136,0.043701,1.017594,-0.120119,-0.095705,-17.645533,-84.190125,10.916305,,,,,,,,,,,,,,,,,,,,,,,,,,,,,,,,,,,,,,,,,,,,,,,,,,,,,,,,,,,,,,,,,,,,,,,,,,,,,,,,,,,,,,,,,,,,,,,,,,,,,
1606509426.696770,33.000000,0.000000,4185.512695,4218.461426,4182.948730,4205.128418,4222.051270,4196.794922,4192.307617,4187.820313,4198.205078,4102.179688,4206.410156,4199.230957,4200.384766,4190.000000,0.000000,4.000000,,,,0.000000,4.000000,4.000000,4.000000,4.000000,4.000000,4.000000,4.000000,4.000000,4.000000,4.000000,4.000000,4.000000,4.000000,4.000000,100.000000,,,,,,,,,,,,,,,,,,,,,,,,,,,,,,,,,,,,,,,,,,,,,,,,,,,,,,,,,,,,,,,,,,,,,,,,,,,,,,,,,,,,,,,,,,,,,,,,,,,,,,,,,,,,,,,,,
1606509426.704580,34.000000,0.000000,4191.794922,4221.666504,4189.102539,4205.641113,4229.487305,4187.820313,4191.538574,4203.077148,4207.179688,4108.717773,4222.948730,4212.820313,4203.717773,4205.769043,0.000000,4.000000,,,,0.000000,4.000000,4.000000,4.000000,4.000000,4.000000,4.000000,4.000000,4.000000,4.000000,4.000000,4.000000,4.000000,4.000000,4.000000,100.000000,,,,,,,,,,,,,,,,,,,,,,,,,,,,,,,,,,,,,,,,,,,,,,,,,,,,,,,,,,,,,,,,,,,,,,,,,,,,,,,,,,,,,,,,,,,,,,,,,,,,,,,,,,,,,,,,,
1606509426.712390,35.000000,0.000000,4185.897461,4216.410156,4184.102539,4198.589844,4219.487305,4186.410156,4200.384766,4204.615234,4197.820313,4103.589844,4213.333496,4208.461426,4200.384766,4202.563965,0.000000,4.000000,,,,0.000000,4.000000,4.000000,4.000000,4.000000,4.000000,4.000000,4.000000,4.000000,4.000000,4.000000,4.000000,4.000000,4.000000,4.000000,100.000000,,,,,,,,,,,,,,,,,,,,,,,,,,,,,,,,,,,,,,,,,,,,,,,,,,,,,,,,,,,,,,,,,,,,,,,,,,,,,,,,,,,,,,,,,,,,,,,,,,,,,,,,,,,,,,,,,
1606509426.720200,36.000000,0.000000,4189.743652,4215.128418,4181.153809,4201.666504,4216.794922,4196.282227,4199.743652,4198.589844,4206.538574,4113.589844,4200.384766,4202.820313,4200.000000,4196.922852,0.000000,4.000000,,,,0.000000,4.000000,4.000000,4.000000,4.000000,4.000000,4.000000,4.000000,4.000000,4.000000,4.000000,4.000000,4.000000,4.000000,4.000000,100.000000,9.000000,0.000000,0.671228,-0.029785,-0.739380,0.043396,1.007340,-0.126467,-0.099123,-17.795071,-84.339668,11.065843,,,,,,,,,,,,,,,,,,,,,,,,,,,,,,,,,,,,,,,,,,,,,,,,,,,,,,,,,,,,,,,,,,,,,,,,,,,,,,,,,,,,,,,,,,,,,,,,,,,,,
1606509426.728010,37.000000,0.000000,4202.051270,4226.025879,4188.461426,4214.102539,4227.820313,4191.282227,4181.410156,4195.256348,4220.512695,4130.256348,4214.871582,4210.384766,4203.461426,4204.871582,0.000000,4.000000,,,,0.000000,4.000000,4.000000,4.000000,4.000000,4.000000,4.000000,4.000000,4.000000,4.000000,4.000000,4.000000,4.000000,4.000000,4.000000,100.000000,,,,,,,,,,,,,,,,,,,,,,,,,,,,,,,,,,,,,,,,,,,,,,,,,,,,,,,,,,,,,,,,,,,,,,,,,,,,,,,,,,,,,,,,,,,,,,,,,,,,,,,,,,,,,,,,,
1606509426.735819,38.000000,0.000000,4192.820313,4226.538574,4187.307617,4210.384766,4229.615234,4191.282227,4187.563965,4190.384766,4208.333496,4119.871582,4226.025879,4209.743652,4201.153809,4206.153809,0.000000,4.000000,,,,0.000000,4.000000,4.000000,4.000000,4.000000,4.000000,4.000000,4.000000,4.000000,4.000000,4.000000,4.000000,4.000000,4.000000,4.000000,100.000000,,,,,,,,,,,,,,,,,,,,,,,,,,,,,,,,,,,,,,,,,,,,3.796943,2.651069,1.576898,1.182323,0.662954,0.601830,1.949471,0.699435,0.710806,0.384565,1.455428,1.582858,1.093877,0.762761,0.341379,0.499429,1.295532,0.716596,0.607193,0.315904,0.797167,0.714794,0.576504,0.292485,0.762278,0.575057,0.307631,0.419450,0.339959,0.292864,0.328503,0.715456,0.887563,0.536299,0.808720,0.413294,1.648590,0.960544,0.164741,0.477924,0.774930,2.598276,1.949818,0.629903,0.662329,2.423219,2.217010,2.092808,1.148756,0.645493,1.912511,1.315086,1.338916,0.805739,0.882568,1.935640,1.284930,1.046159,0.950601,0.474240,2.547422,1.289410,1.629060,1.095033,0.578839,4.525783,2.024656,1.764221,1.412997,0.474770
1606509426.743629,39.000000,0.000000,4177.948730,4217.179688,4177.692383,4201.794922,4225.384766,4193.333496,4197.948730,4187.051270,4192.436035,4103.589844,4213.205078,4198.205078,4196.666504,4195.512695,0.000000,4.000000,,,,0.000000,4.000000,4.000000,4.000000,4.000000,4.000000,4.000000,4.000000,4.000000,4.000000,4.000000,4.000000,4.000000,4.000000,4.000000,100.000000,,,,,,,,,,,,,,,,,,,,,,,,,,,,,,,,,,,,,,,,,,,,,,,,,,,,,,,,,,,,,,,,,,,,,,,,,,,,,,,,,,,,,,,,,,,,,,,,,,,,,,,,,,,,,,,,,
1606509426.751338,40.000000,0.000000,4181.153809,4211.922852,4171.410156,4199.871582,4218.717773,4186.794922,4186.538574,4185.512695,4191.410156,4106.666504,4202.692383,4193.717773,4199.615234,4185.128418,0.000000,4.000000,,,,0.000000,4.000000,4.000000,4.000000,4.000000,4.000000,4.000000,4.000000,4.000000,4.000000,4.000000,4.000000,4.000000,4.000000,4.000000,100.000000,10.000000,0.000000,0.670976,-0.030029,-0.739624,0.042969,1.016129,-0.113283,-0.093751,-18.841841,-85.685509,13.458457,,,,,,,,,,,,,,,,,,,,,,,,,,,,,,,,,,,,,,,,,,,,,,,,,,,,,,,,,,,,,,,,,,,,,,,,,,,,,,,,,,,,,,,,,,,,,,,,,,,,,
1606509426.759147,41.000000,0.000000,4184.487305,4208.846191,4173.717773,4195.769043,4212.179688,4188.717773,4192.563965,4185.769043,4192.692383,4109.102539,4196.794922,4195.512695,4200.000000,4181.282227,0.000000,4.000000,,,,0.000000,4.000000,4.000000,4.000000,4.000000,4.000000,4.000000,4.000000,4.000000,4.000000,4.000000,4.000000,4.000000,4.000000,4.000000,100.000000,,,,,,,,,,,,,,,,,,,,,,,,,,,,,,,,,,,,,,,,,,,,,,,,,,,,,,,,,,,,,,,,,,,,,,,,,,,,,,,,,,,,,,,,,,,,,,,,,,,,,,,,,,,,,,,,,
1606509426.766955,42.000000,0.000000,4189.102539,4215.256348,4184.487305,4203.846191,4221.282227,4193.333496,4201.025879,4193.717773,4200.256348,4111.538574,4200.384766,4198.974121,4203.461426,4192.436035,0.000000,4.000000,,,,0.000000,4.000000,4.000000,4.000000,4.000000,4.000000,4.000000,4.000000,4.000000,4.000000,4.000000,4.000000,4.000000,4.000000,4.000000,100.000000,,,,,,,,,,,,,,,,,,,,,,,,,,,,,,,,,,,,,,,,,,,,,,,,,,,,,,,,,,,,,,,,,,,,,,,,,,,,,,,,,,,,,,,,,,,,,,,,,,,,,,,,,,,,,,,,,
1606509426.774764,43.000000,0.000000,4198.077148,4223.461426,4190.128418,4219.102539,4229.358887,4187.436035,4188.717773,4197.051270,4203.717773,4120.000000,4216.666504,4204.743652,4211.922852,4203.846191,0.000000,4.000000,,,,0.000000,4.000000,4.000000,4.000000,4.000000,4.000000,4.000000,4.000000,4.000000,4.000000,4.000000,4.000000,4.000000,4.000000,4.000000,100.000000,,,,,,,,,,,,,,,,,,,,,,,,,,,,,,,,,,,,,,,,,,,,,,,,,,,,,,,,,,,,,,,,,,,,,,,,,,,,,,,,,,,,,,,,,,,,,,,,,,,,,,,,,,,,,,,,,
1606509426.782573,44.000000,0.000000,4189.871582,4210.512695,4181.794922,4209.102539,4218.589844,4189.102539,4189.358887,4191.794922,4189.358887,4113.589844,4220.769043,4201.282227,4201.538574,4190.000000,0.000000,4.000000,,,,0.000000,4.000000,4.000000,4.000000,4.000000,4.000000,4.000000,4.000000,4.000000,4.000000,4.000000,4.000000,4.000000,4.000000,4.000000,100.000000,11.000000,0.000000,0.670781,-0.030029,-0.739807,0.042847,1.017105,-0.102541,-0.088869,-18.393225,-84.937820,12.710765,,,,,,,,,,,,,,,,,,,,,,,,,,,,,,,,,,,,,,,,,,,,,,,,,,,,,,,,,,,,,,,,,,,,,,,,,,,,,,,,,,,,,,,,,,,,,,,,,,,,,
1606509426.790381,45.000000,0.000000,4178.846191,4200.000000,4175.641113,4191.922852,4211.410156,4196.282227,4201.025879,4195.512695,4188.461426,4104.102539,4208.846191,4195.641113,4189.102539,4177.692383,0.000000,4.000000,,,,0.000000,4.000000,4.000000,4.000000,4.000000,4.000000,4.000000,4.000000,4.000000,4.000000,4.000000,4.000000,4.000000,4.000000,4.000000,100.000000,,,,,,,,,,,,,,,,,,,,,,,,,,,,,,,,,,,,,,,,,,,,,,,,,,,,,,,,,,,,,,,,,,,,,,,,,,,,,,,,,,,,,,,,,,,,,,,,,,,,,,,,,,,,,,,,,
1606509426.798190,46.000000,0.000000,4185.641113,4213.077148,4182.692383,4203.205078,4220.000000,4188.846191,4197.692383,4204.487305,4204.487305,4114.615234,4203.974121,4201.410156,4199.358887,4190.512695,0.000000,4.000000,,,,0.000000,4.000000,4.000000,4.000000,4.000000,4.000000,4.000000,4.000000,4.000000,4.000000,4.000000,4.000000,4.000000,4.000000,4.000000,100.000000,,,,,,,,,,,,,,,,,,,,,,,,,,,,,,,,,,,,,,,,,,,,,,,,,,,,,,,,,,,,,,,,,,,,,,,,,,,,,,,,,,,,,,,,,,,,,,,,,,,,,,,,,,,,,,,,,
1606509426.805999,47.000000,0.000000,4189.102539,4217.179688,4186.282227,4210.000000,4228.077148,4187.692383,4192.307617,4200.512695,4205.512695,4123.717773,4206.666504,4200.128418,4199.358887,4195.128418,0.000000,4.000000,,,,0.000000,4.000000,4.000000,4.000000,4.000000,4.000000,4.000000,4.000000,4.000000,4.000000,4.000000,4.000000,4.000000,4.000000,4.000000,100.000000,,,,,,,,,,,,,,,,,,,,,,,,,,,,,,,,,,,,,,,,,,,,,,,,,,,,,,,,,,,,,,,,,,,,,,,,,,,,,,,,,,,,,,,,,,,,,,,,,,,,,,,,,,,,,,,,,
1606509426.813700,48.000000,0.000000,4182.051270,4209.102539,4181.666504,4199.615234,4224.487305,4192.179688,4192.179688,4193.461426,4200.128418,4121.794922,4199.743652,4188.205078,4185.000000,4183.077148,0.000000,4.000000,,,,0.000000,4.000000,4.000000,4.000000,4.000000,4.000000,4.000000,4.000000,4.000000,4.000000,4.000000,4.000000,4.000000,4.000000,4.000000,100.000000,12.000000,0.000000,0.670658,-0.029785,-0.739929,0.042847,1.013687,-0.090822,-0.099123,-18.692303,-84.339668,10.617228,,,,,,,,,,,,,,,,,,,,,,,,,,,,,,,,,,,,,,,,,,,,,,,,,,,,,,,,,,,,,,,,,,,,,,,,,,,,,,,,,,,,,,,,,,,,,,,,,,,,,
1606509426.821502,49.000000,0.000000,4186.922852,4211.538574,4180.641113,4203.461426,4216.410156,4187.948730,4185.897461,4189.615234,4202.307617,4121.153809,4200.769043,4193.333496,4191.153809,4186.025879,0.000000,4.000000,,,,0.000000,4.000000,4.000000,4.000000,4.000000,4.000000,4.000000,4.000000,4.000000,4.000000,4.000000,4.000000,4.000000,4.000000,4.000000,100.000000,,,,,,,,,,,,,,,,,,,,,,,,,,,,,,,,,,,,,,,,,,,,,,,,,,,,,,,,,,,,,,,,,,,,,,,,,,,,,,,,,,,,,,,,,,,,,,,,,,,,,,,,,,,,,,,,,
1606509426.829203,50.000000,0.000000,4199.358887,4217.436035,4189.102539,4217.820313,4215.256348,4186.410156,4192.692383,4196.025879,4202.563965,4129.615234,4214.230957,4214.102539,4207.563965,4201.025879,0.000000,4.000000,,,,0.000000,4.000000,4.000000,4.000000,4.000000,4.000000,4.000000,4.000000,4.000000,4.000000,4.000000,4.000000,4.000000,4.000000,4.000000,100.000000,,,,,,,,,,,,,,,,,,,,,,,,,,,,,,,,,,,,,,,,,,,,,,,,,,,,,,,,,,,,,,,,,,,,,,,,,,,,,,,,,,,,,,,,,,,,,,,,,,,,,,,,,,,,,,,,,
1606509426.837004,51.000000,0.000000,4202.948730,4215.128418,4197.563965,4217.179688,4218.461426,4190.256348,4201.922852,4199.358887,4200.897461,4137.179688,4212.820313,4219.743652,4208.589844,4205.128418,0.000000,4.000000,,,,0.000000,4.000000,4.000000,4.000000,4.000000,4.000000,4.000000,4.000000,4.000000,4.000000,4.000000,4.000000,4.000000,4.000000,4.000000,100.000000,,,,,,,,,,,,,,,,,,,,,,,,,,,,,,,,,,,,,,,,,,,,,,,,,,,,,,,,,,,,,,,,,,,,,,,,,,,,,,,,,,,,,,,,,,,,,,,,,,,,,,,,,,,,,,,,,
1606509426.844705,52.000000,0.000000,4201.538574,4214.102539,4196.153809,4208.461426,4217.436035,4188.333496,4191.666504,4190.000000,4202.948730,4128.461426,4210.384766,4212.436035,4206.538574,4199.230957,0.000000,4.000000,,,,0.000000,4.000000,4.000000,4.000000,4.000000,4.000000,4.000000,4.000000,4.000000,4.000000,4.000000,4.000000,4.000000,4.000000,4.000000,100.000000,13.000000,0.000000,0.670631,-0.029419,-0.739929,0.043518,1.016129,-0.104982,-0.099611,-17.944611,-85.685509,11.663997,,,,,,,,,,,,,,,,,,,,,,,,,,,,,,,,,,,,,,,,,,,,,,,,,,,,,,,,,,,,,,,,,,,,,,,,,,,,,,,,,,,,,,,,,,,,,,,,,,,,,
1606509426.852506,53.000000,0.000000,4201.282227,4216.025879,4191.794922,4212.820313,4216.794922,4183.461426,4184.743652,4192.051270,4202.820313,4122.820313,4219.743652,4214.102539,4209.102539,4197.179688,0.000000,4.000000,,,,0.000000,4.000000,4.000000,4.000000,4.000000,4.000000,4.000000,4.000000,4.000000,4.000000,4.000000,4.000000,4.000000,4.000000,4.000000,100.000000,,,,,,,,,,,,,,,,,,,,,,,,,,,,,,,,,,,,,,,,,,,,,,,,,,,,,,,,,,,,,,,,,,,,,,,,,,,,,,,,,,,,,,,,,,,,,,,,,,,,,,,,,,,,,,,,,
1606509426.860217,54.000000,0.000000,4199.487305,4211.666504,4189.615234,4215.384766,4219.102539,4185.256348,4189.230957,4196.794922,4197.948730,4130.128418,4213.461426,4214.102539,4205.000000,4196.282227,0.000000,4.000000,,,,0.000000,4.000000,4.000000,4.000000,4.000000,4.000000,4.000000,4.000000,4.000000,4.000000,4.000000,4.000000,4.000000,4.000000,4.000000,100.000000,,,,,,,,,,,,,,,,,,,,,,,,,,,,,,,,,,,,,,,,,,,,5.017599,2.528006,1.646956,1.415246,0.775009,0.776993,1.661421,0.668476,0.801794,0.423850,1.870127,1.521173,1.146877,0.860989,0.362952,0.636126,1.174796,0.645988,0.675012,0.352596,0.738515,0.616220,0.584701,0.338655,0.680613,0.531345,0.358935,0.458088,0.321853,0.293772,0.367562,0.825773,0.956081,0.552449,0.754984,0.403088,1.419695,0.823939,0.179975,0.448115,0.796921,2.368538,1.732360,0.760999,0.648052,2.494579,2.338022,2.012641,1.365032,0.711012,2.316765,1.181412,1.337360,0.891045,0.944156,2.392759,1.391000,1.199415,1.039231,0.485565,2.997660,1.248580,1.855551,1.242597,0.594605,5.769575,2.136401,1.787948,1.521434,0.495999
1606509426.868027,55.000000,0.000000,4195.128418,4203.589844,4187.692383,4204.871582,4214.487305,4187.051270,4186.153809,4189.871582,4193.974121,4133.589844,4200.641113,4204.615234,4195.000000,4192.307617,0.000000,4.000000,,,,0.000000,4.000000,4.000000,4.000000,4.000000,4.000000,4.000000,4.000000,4.000000,4.000000,4.000000,4.000000,4.000000,4.000000,4.000000,100.000000,,,,,,,,,,,,,,,,,,,,,,,,,,,,,,,,,,,,,,,,,,,,,,,,,,,,,,,,,,,,,,,,,,,,,,,,,,,,,,,,,,,,,,,,,,,,,,,,,,,,,,,,,,,,,,,,,
1606509426.875838,56.000000,0.000000,4184.871582,4196.410156,4185.384766,4197.948730,4211.922852,4185.128418,4185.000000,4190.769043,4192.692383,4128.077148,4203.589844,4195.897461,4184.615234,4180.128418,0.000000,4.000000,,,,0.000000,4.000000,4.000000,4.000000,4.000000,4.000000,4.000000,4.000000,4.000000,4.000000,4.000000,4.000000,4.000000,4.000000,4.000000,100.000000,14.000000,0.000000,0.670580,-0.029114,-0.739929,0.044495,1.024430,-0.100099,-0.102541,-18.393225,-85.236893,10.916305,,,,,,,,,,,,,,,,,,,,,,,,,,,,,,,,,,,,,,,,,,,,,,,,,,,,,,,,,,,,,,,,,,,,,,,,,,,,,,,,,,,,,,,,,,,,,,,,,,,,,
1606509426.883648,57.000000,0.000000,4174.871582,4194.743652,4185.641113,4200.641113,4216.538574,4186.282227,4197.179688,4202.948730,4195.256348,4127.692383,4206.666504,4198.717773,4184.487305,4172.051270,0.000000,4.000000,,,,0.000000,4.000000,4.000000,4.000000,4.000000,4.000000,4.000000,4.000000,4.000000,4.000000,4.000000,4.000000,4.000000,4.000000,4.000000,100.000000,,,,,,,,,,,,,,,,,,,,,,,,,,,,,,,,,,,,,,,,,,,,,,,,,,,,,,,,,,,,,,,,,,,,,,,,,,,,,,,,,,,,,,,,,,,,,,,,,,,,,,,,,,,,,,,,,
1606509426.891459,58.000000,0.000000,4177.948730,4197.436035,4185.000000,4201.282227,4216.282227,4190.641113,4201.025879,4199.358887,4193.846191,4129.871582,4206.025879,4203.974121,4192.563965,4176.922852,0.000000,4.000000,,,,0.000000,4.000000,4.000000,4.000000,4.000000,4.000000,4.000000,4.000000,4.000000,4.000000,4.000000,4.000000,4.000000,4.000000,4.000000,100.000000,,,,,,,,,,,,,,,,,,,,,,,,,,,,,,,,,,,,,,,,,,,,,,,,,,,,,,,,,,,,,,,,,,,,,,,,,,,,,,,,,,,,,,,,,,,,,,,,,,,,,,,,,,,,,,,,,
1606509426.899270,59.000000,0.000000,4187.051270,4206.538574,4184.230957,4204.871582,4220.897461,4188.461426,4186.666504,4190.128418,4193.333496,4136.282227,4210.384766,4197.563965,4198.205078,4184.487305,0.000000,4.000000,,,,0.000000,4.000000,4.000000,4.000000,4.000000,4.000000,4.000000,4.000000,4.000000,4.000000,4.000000,4.000000,4.000000,4.000000,4.000000,100.000000,,,,,,,,,,,,,,,,,,,,,,,,,,,,,,,,,,,,,,,,,,,,,,,,,,,,,,,,,,,,,,,,,,,,,,,,,,,,,,,,,,,,,,,,,,,,,,,,,,,,,,,,,,,,,,,,,
1606509426.907080,60.000000,0.000000,4186.666504,4215.384766,4185.256348,4215.384766,4241.410156,4186.025879,4179.743652,4188.077148,4196.282227,4145.384766,4200.641113,4186.410156,4196.666504,4182.179688,0.000000,4.000000,,,,0.000000,4.000000,4.000000,4.000000,4.000000,4.000000,4.000000,4.000000,4.000000,4.000000,4.000000,4.000000,4.000000,4.000000,4.000000,100.000000,15.000000,0.000000,0.670770,-0.028748,-0.739685,0.045898,1.001480,-0.107912,-0.101076,-17.944611,-83.741508,12.710765,,,,,,,,,,,,,,,,,,,,,,,,,,,,,,,,,,,,,,,,,,,,,,,,,,,,,,,,,,,,,,,,,,,,,,,,,,,,,,,,,,,,,,,,,,,,,,,,,,,,,
1606509426.914891,61.000000,0.000000,4184.615234,4220.000000,4185.769043,4218.974121,4240.128418,4194.487305,4192.948730,4191.282227,4199.871582,4151.153809,4194.615234,4188.205078,4191.666504,4176.025879,0.000000,4.000000,,,,0.000000,4.000000,4.000000,4.000000,4.000000,4.000000,4.000000,4.000000,4.000000,4.000000,4.000000,4.000000,4.000000,4.000000,4.000000,100.000000,,,,,,,,,,,,,,,,,,,,,,,,,,,,,,,,,,,,,,,,,,,,,,,,,,,,,,,,,,,,,,,,,,,,,,,,,,,,,,,,,,,,,,,,,,,,,,,,,,,,,,,,,,,,,,,,,
1606509426.922701,62.000000,0.000000,4191.153809,4226.538574,4188.333496,4219.871582,4213.846191,4202.051270,4202.563965,4202.820313,4206.666504,4166.025879,4210.769043,4195.641113,4192.436035,4177.307617,0.000000,4.000000,,,,0.000000,4.000000,4.000000,4.000000,4.000000,4.000000,4.000000,4.000000,4.000000,4.000000,4.000000,4.000000,4.000000,4.000000,4.000000,100.000000,,,,,,,,,,,,,,,,,,,,,,,,,,,,,,,,,,,,,,,,,,,,,,,,,,,,,,,,,,,,,,,,,,,,,,,,,,,,,,,,,,,,,,,,,,,,,,,,,,,,,,,,,,,,,,,,,
1606509426.930512,63.000000,0.000000,4185.128418,4218.846191,4181.153809,4215.128418,4207.436035,4200.769043,4200.897461,4202.948730,4204.358887,4166.153809,4202.051270,4186.153809,4185.641113,4169.102539,0.000000,4.000000,,,,0.000000,4.000000,4.000000,4.000000,4.000000,4.000000,4.000000,4.000000,4.000000,4.000000,4.000000,4.000000,4.000000,4.000000,4.000000,100.000000,,,,,,,,,,,,,,,,,,,,,,,,,,,,,,,,,,,,,,,,,,,,,,,,,,,,,,,,,,,,,,,,,,,,,,,,,,,,,,,,,,,,,,,,,,,,,,,,,,,,,,,,,,,,,,,,,
1606509426.938222,64.000000,0.000000,4167.436035,4203.461426,4169.230957,4203.205078,4214.615234,4197.179688,4200.897461,4199.102539,4201.282227,4147.563965,4184.102539,4172.436035,4177.179688,4153.461426,3381.000000,4.000000,,,,0.000000,4.000000,4.000000,4.000000,4.000000,4.000000,4.000000,4.000000,4.000000,4.000000,4.000000,4.000000,4.000000,4.000000,4.000000,100.000000,16.000000,0.000000,0.671001,-0.028259,-0.739441,0.046753,1.001968,-0.106935,-0.107424,-19.290455,-85.685509,11.663997,,,,,,,,,,,,,,,,,,,,,,,,,,,,,,,,,,,,,,,,,,,,,,,,,,,,,,,,,,,,,,,,,,,,,,,,,,,,,,,,,,,,,,,,,,,,,,,,,,,,,
1606509426.946032,65.000000,0.000000,4165.641113,4207.692383,4167.307617,4200.128418,4213.205078,4195.512695,4198.077148,4202.179688,4203.846191,4144.871582,4195.384766,4170.897461,4180.256348,4149.743652,3494.000000,4.000000,,,,0.000000,4.000000,4.000000,4.000000,4.000000,4.000000,4.000000,4.000000,4.000000,4.000000,4.000000,4.000000,4.000000,4.000000,4.000000,100.000000,,,,,,,,,,,,,,,,,,,,,,,,,,,,,,,,,,,,,,,,,,,,,,,,,,,,,,,,,,,,,,,,,,,,,,,,,,,,,,,,,,,,,,,,,,,,,,,,,,,,,,,,,,,,,,,,,
1606509426.953842,66.000000,0.000000,4180.769043,4219.743652,4175.000000,4207.692383,4213.846191,4198.205078,4197.948730,4201.282227,4205.641113,4157.563965,4199.871582,4177.179688,4186.025879,4159.230957,3545.000000,4.000000,,,,0.000000,4.000000,4.000000,4.000000,4.000000,4.000000,4.000000,4.000000,4.000000,4.000000,4.000000,4.000000,4.000000,4.000000,4.000000,100.000000,,,,,,,,,,,,,,,,,,,,,,,,,,,,,,,,,,,,,,,,,,,,,,,,,,,,,,,,,,,,,,,,,,,,,,,,,,,,,,,,,,,,,,,,,,,,,,,,,,,,,,,,,,,,,,,,,
1606509426.961652,67.000000,0.000000,4190.641113,4212.820313,4182.563965,4206.410156,4218.205078,4202.820313,4197.051270,4196.538574,4201.025879,4159.102539,4184.871582,4181.410156,4183.077148,4163.717773,3418.000000,4.000000,,,,0.000000,4.000000,4.000000,4.000000,4.000000,4.000000,4.000000,4.000000,4.000000,4.000000,4.000000,4.000000,4.000000,4.000000,4.000000,100.000000,,,,,,,,,,,,,,,,,,,,,,,,,,,,,,,,,,,,,,,,,,,,,,,,,,,,,,,,,,,,,,,,,,,,,,,,,,,,,,,,,,,,,,,,,,,,,,,,,,,,,,,,,,,,,,,,,
1606509426.969461,68.000000,0.000000,4183.461426,4203.461426,4181.538574,4197.307617,4224.230957,4197.436035,4190.000000,4195.512695,4192.692383,4146.410156,4183.846191,4178.077148,4177.436035,4158.589844,3393.000000,4.000000,,,,0.000000,4.000000,4.000000,4.000000,4.000000,4.000000,4.000000,4.000000,4.000000,4.000000,4.000000,4.000000,4.000000,4.000000,4.000000,100.000000,17.000000,0.000000,0.671855,-0.026672,-0.738586,0.048889,1.013199,-0.100587,-0.094240,-19.290455,-85.236893,11.963073,,,,,,,,,,,,,,,,,,,,,,,,,,,,,,,,,,,,,,,,,,,,,,,,,,,,,,,,,,,,,,,,,,,,,,,,,,,,,,,,,,,,,,,,,,,,,,,,,,,,,
1606509426.977271,69.000000,0.000000,4183.974121,4212.820313,4182.820313,4204.615234,4226.666504,4187.692383,4187.436035,4198.589844,4197.307617,4154.871582,4201.153809,4183.077148,4182.179688,4165.512695,3250.000000,4.000000,,,,0.000000,4.000000,4.000000,4.000000,4.000000,4.000000,4.000000,4.000000,4.000000,4.000000,4.000000,4.000000,4.000000,4.000000,4.000000,100.000000,,,,,,,,,,,,,,,,,,,,,,,,,,,,,,,,,,,,,,,,,,,,,,,,,,,,,,,,,,,,,,,,,,,,,,,,,,,,,,,,,,,,,,,,,,,,,,,,,,,,,,,,,,,,,,,,,
1606509426.985081,70.000000,0.000000,4197.307617,4220.641113,4188.461426,4220.897461,4223.077148,4190.897461,4196.922852,4199.230957,4207.692383,4178.589844,4206.794922,4198.205078,4187.563965,4176.025879,2915.000000,4.000000,,,,0.000000,4.000000,4.000000,4.000000,4.000000,4.000000,4.000000,4.000000,4.000000,4.000000,4.000000,4.000000,4.000000,4.000000,4.000000,100.000000,,,,,,,,,,,,,,,,,,,,,,,,,,,,,,,,,,,,,,,,,,,,6.053428,2.293284,1.745311,1.561140,0.848538,0.933286,1.315413,0.678731,0.838692,0.449297,2.179421,1.379562,1.268383,0.900941,0.371386,0.757310,1.037143,0.610621,0.702473,0.374509,0.664681,0.481536,0.561367,0.380703,0.548341,0.465556,0.391416,0.487556,0.299441,0.283270,0.434676,0.946861,1.039536,0.534313,0.671567,0.401981,1.163482,0.726036,0.219463,0.409853,0.780566,2.056022,1.541472,0.878784,0.590596,2.419057,2.448292,2.114260,1.537743,0.738299,2.591145,1.179181,1.500751,0.966141,1.003841,2.759456,1.551183,1.486532,1.095652,0.471892,3.284380,1.293031,2.226375,1.325507,0.586115,6.640408,2.191979,1.836318,1.505037,0.511366
1606509426.992891,71.000000,0.000000,4194.743652,4210.769043,4182.692383,4215.512695,4218.077148,4201.794922,4205.128418,4200.512695,4205.897461,4180.897461,4202.179688,4198.846191,4186.410156,4166.410156,2594.000000,4.000000,,,,0.000000,4.000000,4.000000,4.000000,4.000000,4.000000,4.000000,4.000000,4.000000,4.000000,4.000000,4.000000,4.000000,4.000000,4.000000,100.000000,,,,,,,,,,,,,,,,,,,,,,,,,,,,,,,,,,,,,,,,,,,,,,,,,,,,,,,,,,,,,,,,,,,,,,,,,,,,,,,,,,,,,,,,,,,,,,,,,,,,,,,,,,,,,,,,,
1606509427.000701,72.000000,0.000000,4182.563965,4201.153809,4176.282227,4201.666504,4211.538574,4202.436035,4204.358887,4207.692383,4197.563965,4173.461426,4204.871582,4190.897461,4185.512695,4158.846191,3267.000000,4.000000,,,,0.000000,4.000000,4.000000,4.000000,4.000000,4.000000,4.000000,4.000000,4.000000,4.000000,4.000000,4.000000,4.000000,4.000000,4.000000,100.000000,18.000000,0.000000,0.672727,-0.024902,-0.737671,0.051575,1.015152,-0.099123,-0.097658,-17.346457,-84.788284,12.561227,,,,,,,,,,,,,,,,,,,,,,,,,,,,,,,,,,,,,,,,,,,,,,,,,,,,,,,,,,,,,,,,,,,,,,,,,,,,,,,,,,,,,,,,,,,,,,,,,,,,,
1606509427.008411,73.000000,0.000000,4185.128418,4203.589844,4184.743652,4205.512695,4203.974121,4198.461426,4205.512695,4214.230957,4200.897461,4184.615234,4205.384766,4197.948730,4185.897461,4170.641113,3567.000000,4.000000,,,,0.000000,4.000000,4.000000,4.000000,4.000000,4.000000,4.000000,4.000000,4.000000,4.000000,4.000000,4.000000,4.000000,4.000000,4.000000,100.000000,,,,,,,,,,,,,,,,,,,,,,,,,,,,,,,,,,,,,,,,,,,,,,,,,,,,,,,,,,,,,,,,,,,,,,,,,,,,,,,,,,,,,,,,,,,,,,,,,,,,,,,,,,,,,,,,,
1606509427.016221,74.000000,0.000000,4186.538574,4207.051270,4185.769043,4207.692383,4213.461426,4198.077148,4200.512695,4207.820313,4204.487305,4192.563965,4195.128418,4199.615234,4183.846191,4171.410156,3307.000000,4.000000,,,,0.000000,4.000000,4.000000,4.000000,4.000000,4.000000,4.000000,4.000000,4.000000,4.000000,4.000000,4.000000,4.000000,4.000000,4.000000,100.000000,,,,,,,,,,,,,,,,,,,,,,,,,,,,,,,,,,,,,,,,,,,,,,,,,,,,,,,,,,,,,,,,,,,,,,,,,,,,,,,,,,,,,,,,,,,,,,,,,,,,,,,,,,,,,,,,,
1606509427.024031,75.000000,0.000000,4173.974121,4198.205078,4172.692383,4199.487305,4222.051270,4197.436035,4197.692383,4201.538574,4201.666504,4183.461426,4192.436035,4189.102539,4183.333496,4157.948730,3306.000000,4.000000,,,,0.000000,4.000000,4.000000,4.000000,4.000000,4.000000,4.000000,4.000000,4.000000,4.000000,4.000000,4.000000,4.000000,4.000000,4.000000,100.000000,,,,,,,,,,,,,,,,,,,,,,,,,,,,,,,,,,,,,,,,,,,,,,,,,,,,,,,,,,,,,,,,,,,,,,,,,,,,,,,,,,,,,,,,,,,,,,,,,,,,,,,,,,,,,,,,,
1606509427.031842,76.000000,0.000000,4164.615234,4188.717773,4167.820313,4196.282227,4205.897461,4199.615234,4203.974121,4201.794922,4198.717773,4181.922852,4197.051270,4184.358887,4181.282227,4157.692383,3355.000000,4.000000,,,,0.000000,4.000000,4.000000,4.000000,4.000000,4.000000,4.000000,4.000000,4.000000,4.000000,4.000000,4.000000,4.000000,4.000000,4.000000,100.000000,19.000000,0.000000,0.673663,-0.023071,-0.736633,0.054932,1.020035,-0.106447,-0.091798,-18.692303,-85.087357,11.813535,,,,,,,,,,,,,,,,,,,,,,,,,,,,,,,,,,,,,,,,,,,,,,,,,,,,,,,,,,,,,,,,,,,,,,,,,,,,,,,,,,,,,,,,,,,,,,,,,,,,,
1606509427.039652,77.000000,0.000000,4169.230957,4193.846191,4175.256348,4200.641113,4202.820313,4198.846191,4198.846191,4200.897461,4199.230957,4191.282227,4198.846191,4187.948730,4180.897461,4166.922852,3301.000000,4.000000,,,,0.000000,4.000000,4.000000,4.000000,4.000000,4.000000,4.000000,4.000000,4.000000,4.000000,4.000000,4.000000,4.000000,4.000000,4.000000,100.000000,,,,,,,,,,,,,,,,,,,,,,,,,,,,,,,,,,,,,,,,,,,,,,,,,,,,,,,,,,,,,,,,,,,,,,,,,,,,,,,,,,,,,,,,,,,,,,,,,,,,,,,,,,,,,,,,,
1606509427.047462,78.000000,0.000000,4173.461426,4199.358887,4174.487305,4203.333496,4220.000000,4189.743652,4186.282227,4194.358887,4192.436035,4190.769043,4194.102539,4186.794922,4179.230957,4161.282227,3307.000000,4.000000,,,,0.000000,4.000000,4.000000,4.000000,4.000000,4.000000,4.000000,4.000000,4.000000,4.000000,4.000000,4.000000,4.000000,4.000000,4.000000,100.000000,,,,,,,,,,,,,,,,,,,,,,,,,,,,,,,,,,,,,,,,,,,,,,,,,,,,,,,,,,,,,,,,,,,,,,,,,,,,,,,,,,,,,,,,,,,,,,,,,,,,,,,,,,,,,,,,,
1606509427.055272,79.000000,0.000000,4173.717773,4194.358887,4168.846191,4201.153809,4221.282227,4183.333496,4178.461426,4181.794922,4170.384766,4184.230957,4187.948730,4181.538574,4174.871582,4150.384766,3306.000000,4.000000,,,,0.000000,4.000000,4.000000,4.000000,4.000000,4.000000,4.000000,4.000000,4.000000,4.000000,4.000000,4.000000,4.000000,4.000000,4.000000,100.000000,,,,,,,,,,,,,,,,,,,,,,,,,,,,,,,,,,,,,,,,,,,,,,,,,,,,,,,,,,,,,,,,,,,,,,,,,,,,,,,,,,,,,,,,,,,,,,,,,,,,,,,,,,,,,,,,,
1606509427.063082,80.000000,0.000000,4187.051270,4199.358887,4185.512695,4204.743652,4211.153809,4186.025879,4182.436035,4187.563965,4173.461426,4201.538574,4199.615234,4192.179688,4188.717773,4169.358887,3355.000000,4.000000,,,,0.000000,4.000000,4.000000,4.000000,4.000000,4.000000,4.000000,4.000000,4.000000,4.000000,4.000000,4.000000,4.000000,4.000000,4.000000,100.000000,20.000000,0.000000,0.674154,-0.020874,-0.735962,0.058655,1.019547,-0.115724,-0.107912,-17.047379,-84.788284,13.009842,,,,,,,,,,,,,,,,,,,,,,,,,,,,,,,,,,,,,,,,,,,,,,,,,,,,,,,,,,,,,,,,,,,,,,,,,,,,,,,,,,,,,,,,,,,,,,,,,,,,,
1606509427.070892,81.000000,0.000000,4203.205078,4212.307617,4205.256348,4215.897461,4214.615234,4193.205078,4193.974121,4203.077148,4200.769043,4221.025879,4218.077148,4210.128418,4203.589844,4190.641113,3301.000000,4.000000,,,,0.000000,4.000000,4.000000,4.000000,4.000000,4.000000,4.000000,4.000000,4.000000,4.000000,4.000000,4.000000,4.000000,4.000000,4.000000,100.000000,,,,,,,,,,,,,,,,,,,,,,,,,,,,,,,,,,,,,,,,,,,,,,,,,,,,,,,,,,,,,,,,,,,,,,,,,,,,,,,,,,,,,,,,,,,,,,,,,,,,,,,,,,,,,,,,,
1606509427.078602,82.000000,0.000000,4194.358887,4206.666504,4192.307617,4216.922852,4222.051270,4198.717773,4196.538574,4193.333496,4198.974121,4205.384766,4207.436035,4205.512695,4189.871582,4175.256348,3307.000000,4.000000,,,,0.000000,4.000000,4.000000,4.000000,4.000000,4.000000,4.000000,4.000000,4.000000,4.000000,4.000000,4.000000,4.000000,4.000000,4.000000,100.000000,,,,,,,,,,,,,,,,,,,,,,,,,,,,,,,,,,,,,,,,,,,,,,,,,,,,,,,,,,,,,,,,,,,,,,,,,,,,,,,,,,,,,,,,,,,,,,,,,,,,,,,,,,,,,,,,,
1606509427.086412,83.000000,0.000000,4188.589844,4198.974121,4183.846191,4213.589844,4216.282227,4201.794922,4193.077148,4187.051270,4193.717773,4204.871582,4193.461426,4199.487305,4185.897461,4168.846191,3306.000000,4.000000,,,,0.000000,4.000000,4.000000,4.000000,4.000000,4.000000,4.000000,4.000000,4.000000,4.000000,4.000000,4.000000,4.000000,4.000000,4.000000,100.000000,,,,,,,,,,,,,,,,,,,,,,,,,,,,,,,,,,,,,,,,,,,,,,,,,,,,,,,,,,,,,,,,,,,,,,,,,,,,,,,,,,,,,,,,,,,,,,,,,,,,,,,,,,,,,,,,,
1606509427.094223,84.000000,0.000000,4202.692383,4204.487305,4198.846191,4215.769043,4211.025879,4202.051270,4198.974121,4204.743652,4210.769043,4232.051270,4210.641113,4209.871582,4207.179688,4191.153809,3355.000000,4.000000,,,,0.000000,4.000000,4.000000,4.000000,4.000000,4.000000,4.000000,4.000000,4.000000,4.000000,4.000000,4.000000,4.000000,4.000000,4.000000,100.000000,21.000000,0.000000,0.675190,-0.018982,-0.734741,0.062561,1.006851,-0.136233,-0.092287,-17.944611,-85.236893,11.963073,,,,,,,,,,,,,,,,,,,,,,,,,,,,,,,,,,,,,,,,,,,,,,,,,,,,,,,,,,,,,,,,,,,,,,,,,,,,,,,,,,,,,,,,,,,,,,,,,,,,,
1606509427.102033,85.000000,0.000000,4202.692383,4203.205078,4195.128418,4210.897461,4215.769043,4203.077148,4204.743652,4203.589844,4207.563965,4230.512695,4221.794922,4206.794922,4203.333496,4186.794922,3301.000000,4.000000,,,,0.000000,4.000000,4.000000,4.000000,4.000000,4.000000,4.000000,4.000000,4.000000,4.000000,4.000000,4.000000,4.000000,4.000000,4.000000,100.000000,,,,,,,,,,,,,,,,,,,,,,,,,,,,,,,,,,,,,,,,,,,,,,,,,,,,,,,,,,,,,,,,,,,,,,,,,,,,,,,,,,,,,,,,,,,,,,,,,,,,,,,,,,,,,,,,,
1606509427.109843,86.000000,0.000000,4203.333496,4205.897461,4189.615234,4210.000000,4220.897461,4201.538574,4196.410156,4195.128418,4202.179688,4219.743652,4219.487305,4204.102539,4196.153809,4176.282227,3307.000000,4.000000,,,,0.000000,4.000000,4.000000,4.000000,4.000000,4.000000,4.000000,4.000000,4.000000,4.000000,4.000000,4.000000,4.000000,4.000000,4.000000,100.000000,,,,,,,,,,,,,,,,,,,,,,,,,,,,,,,,,,,,,,,,,,,,6.604454,2.061628,1.833985,1.576954,0.859459,1.002186,1.045012,0.722291,0.809000,0.452479,2.284457,1.215869,1.415306,0.868075,0.367761,0.818736,0.934685,0.610577,0.681430,0.374542,0.581807,0.348649,0.500429,0.395492,0.400599,0.392332,0.388775,0.497450,0.286113,0.267130,0.510153,1.041600,1.123451,0.491512,0.585952,0.405335,0.938028,0.701028,0.273541,0.375408,0.714491,1.720059,1.442346,0.951157,0.506551,2.157511,2.477353,2.359490,1.608912,0.716238,2.637512,1.289609,1.756199,1.001868,1.059932,2.950186,1.736596,1.838980,1.095367,0.437322,3.325852,1.414197,2.647981,1.302052,0.551708,6.875162,2.200537,1.874483,1.357286,0.519253
1606509427.117653,87.000000,0.000000,4217.436035,4215.384766,4202.563965,4221.410156,4222.692383,4201.153809,4197.692383,4206.025879,4217.436035,4231.922852,4224.487305,4215.384766,4212.051270,4188.974121,3306.000000,4.000000,,,,0.000000,4.000000,4.000000,4.000000,4.000000,4.000000,4.000000,4.000000,4.000000,4.000000,4.000000,4.000000,4.000000,4.000000,4.000000,100.000000,,,,,,,,,,,,,,,,,,,,,,,,,,,,,,,,,,,,,,,,,,,,,,,,,,,,,,,,,,,,,,,,,,,,,,,,,,,,,,,,,,,,,,,,,,,,,,,,,,,,,,,,,,,,,,,,,
1606509427.125463,88.000000,0.000000,4205.769043,4211.922852,4196.025879,4220.769043,4232.563965,4205.769043,4199.615234,4198.333496,4204.230957,4228.846191,4218.461426,4203.077148,4205.512695,4181.153809,3355.000000,4.000000,,,,0.000000,4.000000,4.000000,4.000000,4.000000,4.000000,4.000000,4.000000,4.000000,4.000000,4.000000,4.000000,4.000000,4.000000,4.000000,100.000000,22.000000,0.000000,0.676464,-0.017090,-0.733276,0.066406,1.001968,-0.136721,-0.077150,-18.393225,-85.984589,11.963073,,,,,,,,,,,,,,,,,,,,,,,,,,,,,,,,,,,,,,,,,,,,,,,,,,,,,,,,,,,,,,,,,,,,,,,,,,,,,,,,,,,,,,,,,,,,,,,,,,,,,
1606509427.133273,89.000000,0.000000,4195.128418,4212.820313,4189.358887,4218.846191,4235.256348,4204.743652,4190.769043,4185.897461,4186.282227,4222.307617,4205.128418,4192.179688,4190.256348,4170.641113,3301.000000,4.000000,,,,0.000000,4.000000,4.000000,4.000000,4.000000,4.000000,4.000000,4.000000,4.000000,4.000000,4.000000,4.000000,4.000000,4.000000,4.000000,100.000000,,,,,,,,,,,,,,,,,,,,,,,,,,,,,,,,,,,,,,,,,,,,,,,,,,,,,,,,,,,,,,,,,,,,,,,,,,,,,,,,,,,,,,,,,,,,,,,,,,,,,,,,,,,,,,,,,
1606509427.141083,90.000000,0.000000,4209.102539,4216.922852,4197.820313,4223.974121,4217.051270,4199.871582,4197.820313,4201.025879,4201.794922,4228.461426,4200.641113,4200.769043,4196.410156,4177.948730,3307.000000,4.000000,,,,0.000000,4.000000,4.000000,4.000000,4.000000,4.000000,4.000000,4.000000,4.000000,4.000000,4.000000,4.000000,4.000000,4.000000,4.000000,100.000000,,,,,,,,,,,,,,,,,,,,,,,,,,,,,,,,,,,,,,,,,,,,,,,,,,,,,,,,,,,,,,,,,,,,,,,,,,,,,,,,,,,,,,,,,,,,,,,,,,,,,,,,,,,,,,,,,
1606509427.148893,91.000000,0.000000,4207.436035,4207.563965,4195.128418,4219.230957,4210.769043,4201.153809,4206.282227,4208.974121,4207.307617,4233.461426,4205.512695,4197.179688,4201.153809,4175.384766,3306.000000,4.000000,,,,0.000000,4.000000,4.000000,4.000000,4.000000,4.000000,4.000000,4.000000,4.000000,4.000000,4.000000,4.000000,4.000000,4.000000,4.000000,100.000000,,,,,,,,,,,,,,,,,,,,,,,,,,,,,,,,,,,,,,,,,,,,,,,,,,,,,,,,,,,,,,,,,,,,,,,,,,,,,,,,,,,,,,,,,,,,,,,,,,,,,,,,,,,,,,,,,
1606509427.156603,92.000000,0.000000,4196.282227,4205.769043,4191.282227,4214.487305,4215.256348,4207.179688,4200.769043,4198.846191,4195.512695,4248.974121,4212.948730,4193.077148,4199.743652,4175.128418,3355.000000,4.000000,,,,0.000000,4.000000,4.000000,4.000000,4.000000,4.000000,4.000000,4.000000,4.000000,4.000000,4.000000,4.000000,4.000000,4.000000,4.000000,100.000000,23.000000,0.000000,0.677838,-0.015198,-0.731689,0.070251,1.018082,-0.124514,-0.062501,-18.393225,-85.685509,13.458457,,,,,,,,,,,,,,,,,,,,,,,,,,,,,,,,,,,,,,,,,,,,,,,,,,,,,,,,,,,,,,,,,,,,,,,,,,,,,,,,,,,,,,,,,,,,,,,,,,,,,
1606509427.164412,93.000000,0.000000,4202.051270,4209.102539,4195.256348,4217.820313,4213.461426,4200.128418,4194.743652,4200.384766,4203.589844,4256.538574,4218.589844,4201.794922,4199.358887,4181.410156,3301.000000,4.000000,,,,0.000000,4.000000,4.000000,4.000000,4.000000,4.000000,4.000000,4.000000,4.000000,4.000000,4.000000,4.000000,4.000000,4.000000,4.000000,100.000000,,,,,,,,,,,,,,,,,,,,,,,,,,,,,,,,,,,,,,,,,,,,,,,,,,,,,,,,,,,,,,,,,,,,,,,,,,,,,,,,,,,,,,,,,,,,,,,,,,,,,,,,,,,,,,,,,
1606509427.172222,94.000000,0.000000,4203.846191,4201.922852,4192.307617,4210.641113,4218.974121,4188.205078,4191.025879,4206.794922,4216.025879,4243.077148,4214.615234,4200.384766,4192.051270,4171.794922,3307.000000,4.000000,,,,0.000000,4.000000,4.000000,4.000000,4.000000,4.000000,4.000000,4.000000,4.000000,4.000000,4.000000,4.000000,4.000000,4.000000,4.000000,100.000000,,,,,,,,,,,,,,,,,,,,,,,,,,,,,,,,,,,,,,,,,,,,,,,,,,,,,,,,,,,,,,,,,,,,,,,,,,,,,,,,,,,,,,,,,,,,,,,,,,,,,,,,,,,,,,,,,
1606509427.180031,95.000000,0.000000,4196.538574,4200.000000,4190.769043,4200.000000,4215.769043,4193.846191,4187.563965,4202.051270,4208.077148,4243.333496,4204.743652,4195.641113,4189.871582,4167.820313,3306.000000,4.000000,,,,0.000000,4.000000,4.000000,4.000000,4.000000,4.000000,4.000000,4.000000,4.000000,4.000000,4.000000,4.000000,4.000000,4.000000,4.000000,100.000000,,,,,,,,,,,,,,,,,,,,,,,,,,,,,,,,,,,,,,,,,,,,,,,,,,,,,,,,,,,,,,,,,,,,,,,,,,,,,,,,,,,,,,,,,,,,,,,,,,,,,,,,,,,,,,,,,
1606509427.187841,96.000000,0.000000,4195.128418,4205.384766,4194.487305,4208.461426,4195.641113,4198.205078,4186.282227,4199.615234,4202.692383,4262.051270,4206.410156,4203.333496,4200.897461,4184.487305,3355.000000,4.000000,,,,0.000000,4.000000,4.000000,4.000000,4.000000,4.000000,4.000000,4.000000,4.000000,4.000000,4.000000,4.000000,4.000000,4.000000,4.000000,100.000000,24.000000,0.000000,0.679105,-0.013367,-0.730164,0.074158,1.021500,-0.125978,-0.061036,-16.748302,-86.732277,11.963073,,,,,,,,,,,,,,,,,,,,,,,,,,,,,,,,,,,,,,,,,,,,,,,,,,,,,,,,,,,,,,,,,,,,,,,,,,,,,,,,,,,,,,,,,,,,,,,,,,,,,
1606509427.195650,97.000000,0.000000,4188.333496,4201.410156,4187.563965,4218.974121,4201.025879,4189.743652,4184.230957,4201.282227,4205.512695,4262.179688,4215.256348,4202.307617,4199.102539,4185.384766,3301.000000,4.000000,,,,0.000000,4.000000,4.000000,4.000000,4.000000,4.000000,4.000000,4.000000,4.000000,4.000000,4.000000,4.000000,4.000000,4.000000,4.000000,100.000000,,,,,,,,,,,,,,,,,,,,,,,,,,,,,,,,,,,,,,,,,,,,,,,,,,,,,,,,,,,,,,,,,,,,,,,,,,,,,,,,,,,,,,,,,,,,,,,,,,,,,,,,,,,,,,,,,
1606509427.203459,98.000000,0.000000,4187.692383,4200.897461,4188.333496,4217.563965,4220.384766,4189.487305,4187.820313,4203.717773,4206.538574,4257.179688,4215.897461,4200.256348,4195.000000,4178.333496,3307.000000,4.000000,,,,0.000000,4.000000,4.000000,4.000000,4.000000,4.000000,4.000000,4.000000,4.000000,4.000000,4.000000,4.000000,4.000000,4.000000,4.000000,100.000000,,,,,,,,,,,,,,,,,,,,,,,,,,,,,,,,,,,,,,,,,,,,,,,,,,,,,,,,,,,,,,,,,,,,,,,,,,,,,,,,,,,,,,,,,,,,,,,,,,,,,,,,,,,,,,,,,
1606509427.211269,99.000000,0.000000,4200.512695,4204.615234,4200.641113,4213.333496,4208.846191,4195.512695,4197.436035,4204.102539,4204.743652,4260.641113,4212.436035,4208.461426,4202.692383,4185.641113,3306.000000,4.000000,,,,0.000000,4.000000,4.000000,4.000000,4.000000,4.000000,4.000000,4.000000,4.000000,4.000000,4.000000,4.000000,4.000000,4.000000,4.000000,100.000000,,,,,,,,,,,,,,,,,,,,,,,,,,,,,,,,,,,,,,,,,,,,,,,,,,,,,,,,,,,,,,,,,,,,,,,,,,,,,,,,,,,,,,,,,,,,,,,,,,,,,,,,,,,,,,,,,
1606509427.219078,100.000000,0.000000,4195.769043,4199.102539,4197.563965,4207.948730,4192.051270,4196.666504,4204.358887,4200.512695,4201.410156,4252.948730,4214.358887,4207.563965,4203.717773,4186.282227,3355.000000,4.000000,,,,0.000000,4.000000,4.000000,4.000000,4.000000,4.000000,4.000000,4.000000,4.000000,4.000000,4.000000,4.000000,4.000000,4.000000,4.000000,100.000000,25.000000,0.000000,0.679693,-0.012451,-0.729431,0.076111,1.021012,-0.152346,-0.067872,-20.486763,-85.685509,11.963073,,,,,,,,,,,,,,,,,,,,,,,,,,,,,,,,,,,,,,,,,,,,,,,,,,,,,,,,,,,,,,,,,,,,,,,,,,,,,,,,,,,,,,,,,,,,,,,,,,,,,
1606509427.226788,101.000000,0.000000,4184.358887,4196.538574,4191.922852,4204.615234,4197.436035,4194.102539,4202.692383,4202.692383,4202.692383,4251.538574,4213.205078,4204.615234,4196.153809,4182.307617,3301.000000,4.000000,,,,0.000000,4.000000,4.000000,4.000000,4.000000,4.000000,4.000000,4.000000,4.000000,4.000000,4.000000,4.000000,4.000000,4.000000,4.000000,100.000000,,,,,,,,,,,,,,,,,,,,,,,,,,,,,,,,,,,,,,,,,,,,,,,,,,,,,,,,,,,,,,,,,,,,,,,,,,,,,,,,,,,,,,,,,,,,,,,,,,,,,,,,,,,,,,,,,
1606509427.234597,102.000000,0.000000,4193.461426,4203.717773,4198.333496,4210.384766,4209.871582,4192.179688,4189.358887,4205.256348,4211.922852,4266.410156,4212.563965,4212.820313,4200.512695,4185.769043,3307.000000,4.000000,,,,0.000000,4.000000,4.000000,4.000000,4.000000,4.000000,4.000000,4.000000,4.000000,4.000000,4.000000,4.000000,4.000000,4.000000,4.000000,100.000000,,,,,,,,,,,,,,,,,,,,,,,,,,,,,,,,,,,,,,,,,,,,6.477496,1.912666,1.866976,1.459015,0.806024,0.971120,0.929832,0.776617,0.720771,0.434646,2.154422,1.079925,1.518601,0.770982,0.356349,0.803147,0.893378,0.637698,0.617581,0.355644,0.502507,0.250052,0.418472,0.381762,0.278824,0.335783,0.351682,0.481152,0.285400,0.251605,0.573644,1.071506,1.179326,0.442785,0.522822,0.407024,0.776824,0.740097,0.326776,0.354358,0.616600,1.414227,1.413550,0.952243,0.423466,1.817500,2.407773,2.584083,1.552214,0.657320,2.442446,1.446492,1.969338,0.982910,1.103055,2.950586,1.906081,2.141693,1.027153,0.393653,3.116450,1.568672,2.965881,1.164515,0.498378,6.408325,2.176377,1.857015,1.111823,0.520816
1606509427.242407,103.000000,0.000000,4204.743652,4210.384766,4205.769043,4217.051270,4214.487305,4196.666504,4186.025879,4199.487305,4214.615234,4275.000000,4223.461426,4219.615234,4212.948730,4188.717773,3306.000000,4.000000,,,,0.000000,4.000000,4.000000,4.000000,4.000000,4.000000,4.000000,4.000000,4.000000,4.000000,4.000000,4.000000,4.000000,4.000000,4.000000,100.000000,,,,,,,,,,,,,,,,,,,,,,,,,,,,,,,,,,,,,,,,,,,,,,,,,,,,,,,,,,,,,,,,,,,,,,,,,,,,,,,,,,,,,,,,,,,,,,,,,,,,,,,,,,,,,,,,,
1606509427.250217,104.000000,0.000000,4198.333496,4206.153809,4200.512695,4210.384766,4211.282227,4203.333496,4202.179688,4204.102539,4206.666504,4266.922852,4227.563965,4214.230957,4207.948730,4183.205078,3355.000000,4.000000,,,,0.000000,4.000000,4.000000,4.000000,4.000000,4.000000,4.000000,4.000000,4.000000,4.000000,4.000000,4.000000,4.000000,4.000000,4.000000,100.000000,26.000000,0.000000,0.680959,-0.010681,-0.727905,0.079590,1.024430,-0.160647,-0.054200,-17.346457,-86.283669,11.065843,,,,,,,,,,,,,,,,,,,,,,,,,,,,,,,,,,,,,,,,,,,,,,,,,,,,,,,,,,,,,,,,,,,,,,,,,,,,,,,,,,,,,,,,,,,,,,,,,,,,,
1606509427.258026,105.000000,0.000000,4188.461426,4195.384766,4190.000000,4202.692383,4212.051270,4202.948730,4200.769043,4206.922852,4195.641113,4254.871582,4201.538574,4203.717773,4187.307617,4174.615234,3301.000000,4.000000,,,,0.000000,4.000000,4.000000,4.000000,4.000000,4.000000,4.000000,4.000000,4.000000,4.000000,4.000000,4.000000,4.000000,4.000000,4.000000,100.000000,,,,,,,,,,,,,,,,,,,,,,,,,,,,,,,,,,,,,,,,,,,,,,,,,,,,,,,,,,,,,,,,,,,,,,,,,,,,,,,,,,,,,,,,,,,,,,,,,,,,,,,,,,,,,,,,,
1606509427.265836,106.000000,0.000000,4179.871582,4188.846191,4181.666504,4199.615234,4216.025879,4210.000000,4193.205078,4190.641113,4181.666504,4236.153809,4174.358887,4189.487305,4173.974121,4164.743652,3307.000000,4.000000,,,,0.000000,4.000000,4.000000,4.000000,4.000000,4.000000,4.000000,4.000000,4.000000,4.000000,4.000000,4.000000,4.000000,4.000000,4.000000,100.000000,,,,,,,,,,,,,,,,,,,,,,,,,,,,,,,,,,,,,,,,,,,,,,,,,,,,,,,,,,,,,,,,,,,,,,,,,,,,,,,,,,,,,,,,,,,,,,,,,,,,,,,,,,,,,,,,,
1606509427.273646,107.000000,0.000000,4167.179688,4183.589844,4177.307617,4196.153809,4209.871582,4218.077148,4202.563965,4187.436035,4180.512695,4223.974121,4184.230957,4182.179688,4175.769043,4158.974121,3306.000000,4.000000,,,,0.000000,4.000000,4.000000,4.000000,4.000000,4.000000,4.000000,4.000000,4.000000,4.000000,4.000000,4.000000,4.000000,4.000000,4.000000,100.000000,,,,,,,,,,,,,,,,,,,,,,,,,,,,,,,,,,,,,,,,,,,,,,,,,,,,,,,,,,,,,,,,,,,,,,,,,,,,,,,,,,,,,,,,,,,,,,,,,,,,,,,,,,,,,,,,,
1606509427.281455,108.000000,0.000000,4167.820313,4181.794922,4182.179688,4198.974121,4202.692383,4206.282227,4203.461426,4207.179688,4197.692383,4242.692383,4205.512695,4195.128418,4184.358887,4167.436035,3355.000000,4.000000,,,,0.000000,4.000000,4.000000,4.000000,4.000000,4.000000,4.000000,4.000000,4.000000,4.000000,4.000000,4.000000,4.000000,4.000000,4.000000,100.000000,27.000000,0.000000,0.681851,-0.009033,-0.726807,0.082153,1.029313,-0.154788,-0.053712,-19.888609,-85.087357,11.065843,,,,,,,,,,,,,,,,,,,,,,,,,,,,,,,,,,,,,,,,,,,,,,,,,,,,,,,,,,,,,,,,,,,,,,,,,,,,,,,,,,,,,,,,,,,,,,,,,,,,,
1606509427.289162,109.000000,0.000000,4188.205078,4192.307617,4199.487305,4210.641113,4210.256348,4199.102539,4205.256348,4221.025879,4213.077148,4263.461426,4215.512695,4212.692383,4198.205078,4184.743652,3301.000000,4.000000,,,,0.000000,4.000000,4.000000,4.000000,4.000000,4.000000,4.000000,4.000000,4.000000,4.000000,4.000000,4.000000,4.000000,4.000000,4.000000,100.000000,,,,,,,,,,,,,,,,,,,,,,,,,,,,,,,,,,,,,,,,,,,,,,,,,,,,,,,,,,,,,,,,,,,,,,,,,,,,,,,,,,,,,,,,,,,,,,,,,,,,,,,,,,,,,,,,,
1606509427.296968,110.000000,0.000000,4208.589844,4204.871582,4218.461426,4222.179688,4215.512695,4204.615234,4213.974121,4219.358887,4218.589844,4270.128418,4222.820313,4225.128418,4218.333496,4201.666504,3307.000000,4.000000,,,,0.000000,4.000000,4.000000,4.000000,4.000000,4.000000,4.000000,4.000000,4.000000,4.000000,4.000000,4.000000,4.000000,4.000000,4.000000,100.000000,,,,,,,,,,,,,,,,,,,,,,,,,,,,,,,,,,,,,,,,,,,,,,,,,,,,,,,,,,,,,,,,,,,,,,,,,,,,,,,,,,,,,,,,,,,,,,,,,,,,,,,,,,,,,,,,,
1606509427.304774,111.000000,0.000000,4208.333496,4204.487305,4215.641113,4218.461426,4217.051270,4200.256348,4197.307617,4208.589844,4205.769043,4274.230957,4221.153809,4223.974121,4218.717773,4203.205078,3306.000000,4.000000,,,,0.000000,4.000000,4.000000,4.000000,4.000000,4.000000,4.000000,4.000000,4.000000,4.000000,4.000000,4.000000,4.000000,4.000000,4.000000,100.000000,,,,,,,,,,,,,,,,,,,,,,,,,,,,,,,,,,,,,,,,,,,,,,,,,,,,,,,,,,,,,,,,,,,,,,,,,,,,,,,,,,,,,,,,,,,,,,,,,,,,,,,,,,,,,,,,,
1606509427.312581,112.000000,0.000000,4195.128418,4198.077148,4199.487305,4206.025879,4219.358887,4193.846191,4180.128418,4194.102539,4184.230957,4265.256348,4210.641113,4208.077148,4201.153809,4188.589844,3355.000000,4.000000,,,,0.000000,4.000000,4.000000,4.000000,4.000000,4.000000,4.000000,4.000000,4.000000,4.000000,4.000000,4.000000,4.000000,4.000000,4.000000,100.000000,28.000000,0.000000,0.682134,-0.007751,-0.726318,0.084229,1.022965,-0.149416,-0.052735,-16.598764,-85.087357,11.065843,,,,,,,,,,,,,,,,,,,,,,,,,,,,,,,,,,,,,,,,,,,,,,,,,,,,,,,,,,,,,,,,,,,,,,,,,,,,,,,,,,,,,,,,,,,,,,,,,,,,,
1606509427.320387,113.000000,0.000000,4195.512695,4198.974121,4198.333496,4207.563965,4209.102539,4199.743652,4193.974121,4197.948730,4189.871582,4257.307617,4218.717773,4206.153809,4205.512695,4186.666504,3301.000000,4.000000,,,,0.000000,4.000000,4.000000,4.000000,4.000000,4.000000,4.000000,4.000000,4.000000,4.000000,4.000000,4.000000,4.000000,4.000000,4.000000,100.000000,,,,,,,,,,,,,,,,,,,,,,,,,,,,,,,,,,,,,,,,,,,,,,,,,,,,,,,,,,,,,,,,,,,,,,,,,,,,,,,,,,,,,,,,,,,,,,,,,,,,,,,,,,,,,,,,,
1606509427.328193,114.000000,0.000000,4201.538574,4204.743652,4205.384766,4217.307617,4193.589844,4205.000000,4205.000000,4210.769043,4210.000000,4274.615234,4232.692383,4216.794922,4218.333496,4197.179688,3307.000000,4.000000,,,,0.000000,4.000000,4.000000,4.000000,4.000000,4.000000,4.000000,4.000000,4.000000,4.000000,4.000000,4.000000,4.000000,4.000000,4.000000,100.000000,,,,,,,,,,,,,,,,,,,,,,,,,,,,,,,,,,,,,,,,,,,,,,,,,,,,,,,,,,,,,,,,,,,,,,,,,,,,,,,,,,,,,,,,,,,,,,,,,,,,,,,,,,,,,,,,,
1606509427.336000,115.000000,0.000000,4196.922852,4204.358887,4204.487305,4210.256348,4192.179688,4204.871582,4201.282227,4207.563965,4209.743652,4282.307617,4219.230957,4208.974121,4205.384766,4192.563965,3306.000000,4.000000,,,,0.000000,4.000000,4.000000,4.000000,4.000000,4.000000,4.000000,4.000000,4.000000,4.000000,4.000000,4.000000,4.000000,4.000000,4.000000,100.000000,,,,,,,,,,,,,,,,,,,,,,,,,,,,,,,,,,,,,,,,,,,,,,,,,,,,,,,,,,,,,,,,,,,,,,,,,,,,,,,,,,,,,,,,,,,,,,,,,,,,,,,,,,,,,,,,,
1606509427.343709,116.000000,0.000000,4187.307617,4197.179688,4195.897461,4202.436035,4202.179688,4200.769043,4195.000000,4198.974121,4195.641113,4263.205078,4199.871582,4194.871582,4192.179688,4178.077148,3355.000000,4.000000,,,,0.000000,4.000000,4.000000,4.000000,4.000000,4.000000,4.000000,4.000000,4.000000,4.000000,4.000000,4.000000,4.000000,4.000000,4.000000,100.000000,29.000000,0.000000,0.682028,-0.006714,-0.726257,0.085693,1.017105,-0.143557,-0.064454,-18.692303,-85.535973,12.561227,,,,,,,,,,,,,,,,,,,,,,,,,,,,,,,,,,,,,,,,,,,,,,,,,,,,,,,,,,,,,,,,,,,,,,,,,,,,,,,,,,,,,,,,,,,,,,,,,,,,,
1606509427.351518,117.000000,0.000000,4181.794922,4191.025879,4184.743652,4206.666504,4205.512695,4188.589844,4184.743652,4194.743652,4185.512695,4253.461426,4195.384766,4193.077148,4195.641113,4170.384766,3301.000000,4.000000,,,,0.000000,4.000000,4.000000,4.000000,4.000000,4.000000,4.000000,4.000000,4.000000,4.000000,4.000000,4.000000,4.000000,4.000000,4.000000,100.000000,,,,,,,,,,,,,,,,,,,,,,,,,,,,,,,,,,,,,,,,,,,,,,,,,,,,,,,,,,,,,,,,,,,,,,,,,,,,,,,,,,,,,,,,,,,,,,,,,,,,,,,,,,,,,,,,,
1606509427.359328,118.000000,0.000000,4193.846191,4195.000000,4189.743652,4205.384766,4201.666504,4184.358887,4183.974121,4200.256348,4194.743652,4265.641113,4204.871582,4200.384766,4202.051270,4177.692383,3307.000000,4.000000,,,,0.000000,4.000000,4.000000,4.000000,4.000000,4.000000,4.000000,4.000000,4.000000,4.000000,4.000000,4.000000,4.000000,4.000000,4.000000,100.000000,,,,,,,,,,,,,,,,,,,,,,,,,,,,,,,,,,,,,,,,,,,,5.715473,1.847493,1.814397,1.242422,0.708628,0.893716,0.952710,0.818585,0.598250,0.404525,1.836811,0.989938,1.514254,0.636338,0.342086,0.721376,0.891272,0.682397,0.527880,0.328140,0.435584,0.202533,0.352350,0.353560,0.211703,0.310283,0.297896,0.437806,0.290362,0.240175,0.608172,1.019157,1.175474,0.404106,0.490321,0.404799,0.681343,0.800280,0.363099,0.347853,0.528847,1.178471,1.378935,0.876062,0.365531,1.450141,2.270972,2.617933,1.378120,0.588516,2.068285,1.577326,2.026671,0.912192,1.117763,2.809877,2.035199,2.289289,0.899158,0.355066,2.711010,1.696025,3.046837,0.945908,0.438671,5.397840,2.137753,1.754692,0.830474,0.519686
1606509427.367137,119.000000,0.000000,4209.871582,4201.794922,4205.128418,4205.641113,4198.461426,4198.461426,4192.179688,4206.282227,4203.974121,4272.307617,4212.436035,4205.256348,4204.102539,4188.974121,3306.000000,4.000000,,,,0.000000,4.000000,4.000000,4.000000,4.000000,4.000000,4.000000,4.000000,4.000000,4.000000,4.000000,4.000000,4.000000,4.000000,4.000000,100.000000,,,,,,,,,,,,,,,,,,,,,,,,,,,,,,,,,,,,,,,,,,,,,,,,,,,,,,,,,,,,,,,,,,,,,,,,,,,,,,,,,,,,,,,,,,,,,,,,,,,,,,,,,,,,,,,,,
1606509427.374947,120.000000,0.000000,4197.820313,4196.794922,4199.615234,4209.230957,4205.769043,4198.974121,4185.641113,4195.897461,4187.051270,4257.436035,4206.794922,4194.615234,4193.589844,4183.333496,3355.000000,4.000000,,,,0.000000,4.000000,4.000000,4.000000,4.000000,4.000000,4.000000,4.000000,4.000000,4.000000,4.000000,4.000000,4.000000,4.000000,4.000000,100.000000,30.000000,0.000000,0.681921,-0.006042,-0.726196,0.087097,1.018570,-0.142580,-0.053712,-17.944611,-84.937820,12.710765,,,,,,,,,,,,,,,,,,,,,,,,,,,,,,,,,,,,,,,,,,,,,,,,,,,,,,,,,,,,,,,,,,,,,,,,,,,,,,,,,,,,,,,,,,,,,,,,,,,,,
1606509427.382756,121.000000,0.000000,4180.512695,4186.025879,4190.000000,4204.743652,4204.358887,4184.102539,4181.153809,4189.615234,4177.948730,4242.051270,4196.794922,4183.846191,4185.128418,4172.563965,3301.000000,4.000000,,,,0.000000,4.000000,4.000000,4.000000,4.000000,4.000000,4.000000,4.000000,4.000000,4.000000,4.000000,4.000000,4.000000,4.000000,4.000000,100.000000,,,,,,,,,,,,,,,,,,,,,,,,,,,,,,,,,,,,,,,,,,,,,,,,,,,,,,,,,,,,,,,,,,,,,,,,,,,,,,,,,,,,,,,,,,,,,,,,,,,,,,,,,,,,,,,,,
1606509427.390565,122.000000,0.000000,4187.307617,4184.358887,4199.615234,4203.974121,4178.077148,4192.051270,4200.769043,4209.358887,4201.282227,4248.333496,4197.692383,4196.025879,4197.563965,4181.794922,3307.000000,4.000000,,,,0.000000,4.000000,4.000000,4.000000,4.000000,4.000000,4.000000,4.000000,4.000000,4.000000,4.000000,4.000000,4.000000,4.000000,4.000000,100.000000,,,,,,,,,,,,,,,,,,,,,,,,,,,,,,,,,,,,,,,,,,,,,,,,,,,,,,,,,,,,,,,,,,,,,,,,,,,,,,,,,,,,,,,,,,,,,,,,,,,,,,,,,,,,,,,,,
1606509427.398375,123.000000,0.000000,4196.538574,4195.512695,4205.384766,4210.128418,4170.512695,4205.000000,4208.846191,4218.461426,4207.820313,4257.692383,4205.128418,4207.820313,4206.025879,4192.307617,3306.000000,4.000000,,,,0.000000,4.000000,4.000000,4.000000,4.000000,4.000000,4.000000,4.000000,4.000000,4.000000,4.000000,4.000000,4.000000,4.000000,4.000000,100.000000,,,,,,,,,,,,,,,,,,,,,,,,,,,,,,,,,,,,,,,,,,,,,,,,,,,,,,,,,,,,,,,,,,,,,,,,,,,,,,,,,,,,,,,,,,,,,,,,,,,,,,,,,,,,,,,,,
1606509427.406086,124.000000,0.000000,4191.538574,4197.179688,4198.974121,4208.589844,4191.922852,4192.820313,4190.512695,4200.641113,4187.179688,4248.333496,4200.769043,4198.846191,4192.692383,4183.333496,3355.000000,4.000000,,,,0.000000,4.000000,4.000000,4.000000,4.000000,4.000000,4.000000,4.000000,4.000000,4.000000,4.000000,4.000000,4.000000,4.000000,4.000000,100.000000,31.000000,0.000000,0.682003,-0.005798,-0.725952,0.088501,1.001968,-0.148928,-0.055665,-17.944611,-85.236893,12.411689,,,,,,,,,,,,,,,,,,,,,,,,,,,,,,,,,,,,,,,,,,,,,,,,,,,,,,,,,,,,,,,,,,,,,,,,,,,,,,,,,,,,,,,,,,,,,,,,,,,,,
1606509427.413898,125.000000,0.000000,4186.538574,4187.563965,4197.948730,4200.897461,4195.641113,4180.897461,4176.410156,4194.487305,4182.436035,4241.794922,4193.461426,4194.358887,4184.487305,4178.205078,3301.000000,4.000000,,,,0.000000,4.000000,4.000000,4.000000,4.000000,4.000000,4.000000,4.000000,4.000000,4.000000,4.000000,4.000000,4.000000,4.000000,4.000000,100.000000,,,,,,,,,,,,,,,,,,,,,,,,,,,,,,,,,,,,,,,,,,,,,,,,,,,,,,,,,,,,,,,,,,,,,,,,,,,,,,,,,,,,,,,,,,,,,,,,,,,,,,,,,,,,,,,,,
1606509427.421709,126.000000,0.000000,4193.333496,4185.897461,4202.436035,4198.846191,4183.717773,4189.615234,4183.333496,4200.128418,4191.538574,4253.846191,4202.948730,4203.846191,4193.974121,4185.641113,3307.000000,4.000000,,,,0.000000,4.000000,4.000000,4.000000,4.000000,4.000000,4.000000,4.000000,4.000000,4.000000,4.000000,4.000000,4.000000,4.000000,4.000000,100.000000,,,,,,,,,,,,,,,,,,,,,,,,,,,,,,,,,,,,,,,,,,,,,,,,,,,,,,,,,,,,,,,,,,,,,,,,,,,,,,,,,,,,,,,,,,,,,,,,,,,,,,,,,,,,,,,,,
1606509427.429520,127.000000,0.000000,4204.230957,4194.743652,4205.256348,4203.077148,4182.436035,4198.974121,4196.410156,4200.769043,4198.461426,4268.589844,4221.538574,4215.256348,4208.717773,4192.436035,53.000000,4.000000,,,,0.000000,4.000000,4.000000,4.000000,4.000000,4.000000,4.000000,4.000000,4.000000,4.000000,4.000000,4.000000,4.000000,4.000000,4.000000,100.000000,,,,,,,,,,,,,,,,,,,,,,,,,,,,,,,,,,,,,,,,,,,,,,,,,,,,,,,,,,,,,,,,,,,,,,,,,,,,,,,,,,,,,,,,,,,,,,,,,,,,,,,,,,,,,,,,,
1606509427.437331,0.000000,0.000000,4194.871582,4195.128418,4204.743652,4204.615234,4189.871582,4199.615234,4199.102539,4204.743652,4202.179688,4265.512695,4218.846191,4218.205078,4206.922852,4190.897461,3384.000000,4.000000,,,,0.000000,4.000000,4.000000,4.000000,4.000000,4.000000,4.000000,4.000000,4.000000,4.000000,4.000000,4.000000,4.000000,4.000000,4.000000,100.000000,0.000000,0.000000,0.682527,-0.005554,-0.725281,0.089966,1.011246,-0.132326,-0.056641,-20.636301,-87.031357,14.505226,,,,,,,,,,,,,,,,,,,,,,,,,,,,,,,,,,,,,,,,,,,,,,,,,,,,,,,,,,,,,,,,,,,,,,,,,,,,,,,,,,,,,,,,,,,,,,,,,,,,,
