title:vishal_nback_5, start timestamp:1606590779.541098, stop timestamp:1606590837.572374, headset type:EPOCPLUS, headset serial:4A2C14BBFA, headset firmware:634, channels:151, sampling rate:eeg_128;mot_32;pm_0.1;pow_8, samples:7444      , version:2.0
Timestamp,EEG.Counter,EEG.Interpolated,EEG.AF3,EEG.F7,EEG.F3,EEG.FC5,EEG.T7,EEG.P7,EEG.O1,EEG.O2,EEG.P8,EEG.T8,EEG.FC6,EEG.F4,EEG.F8,EEG.AF4,EEG.RawCq,EEG.Battery,MarkerIndex,MarkerType,MarkerValueInt,EEG.MarkerHardware,CQ.AF3,CQ.F7,CQ.F3,CQ.FC5,CQ.T7,CQ.P7,CQ.O1,CQ.O2,CQ.P8,CQ.T8,CQ.FC6,CQ.F4,CQ.F8,CQ.AF4,CQ.Overall,MOT.CounterMems,MOT.InterpolatedMems,MOT.Q0,MOT.Q1,MOT.Q2,MOT.Q3,MOT.AccX,MOT.AccY,MOT.AccZ,MOT.MagX,MOT.MagY,MOT.MagZ,PM.Engagement.IsActive,PM.Engagement.Scaled,PM.Engagement.Raw,PM.Engagement.Min,PM.Engagement.Max,PM.Excitement.IsActive,PM.Excitement.Scaled,PM.Excitement.Raw,PM.Excitement.Min,PM.Excitement.Max,PM.LongTermExcitement,PM.Stress.IsActive,PM.Stress.Scaled,PM.Stress.Raw,PM.Stress.Min,PM.Stress.Max,PM.Relaxation.IsActive,PM.Relaxation.Scaled,PM.Relaxation.Raw,PM.Relaxation.Min,PM.Relaxation.Max,PM.Interest.IsActive,PM.Interest.Scaled,PM.Interest.Raw,PM.Interest.Min,PM.Interest.Max,PM.Focus.IsActive,PM.Focus.Scaled,PM.Focus.Raw,PM.Focus.Min,PM.Focus.Max,POW.AF3.Theta,POW.AF3.Alpha,POW.AF3.BetaL,POW.AF3.BetaH,POW.AF3.Gamma,POW.F7.Theta,POW.F7.Alpha,POW.F7.BetaL,POW.F7.BetaH,POW.F7.Gamma,POW.F3.Theta,POW.F3.Alpha,POW.F3.BetaL,POW.F3.BetaH,POW.F3.Gamma,POW.FC5.Theta,POW.FC5.Alpha,POW.FC5.BetaL,POW.FC5.BetaH,POW.FC5.Gamma,POW.T7.Theta,POW.T7.Alpha,POW.T7.BetaL,POW.T7.BetaH,POW.T7.Gamma,POW.P7.Theta,POW.P7.Alpha,POW.P7.BetaL,POW.P7.BetaH,POW.P7.Gamma,POW.O1.Theta,POW.O1.Alpha,POW.O1.BetaL,POW.O1.BetaH,POW.O1.Gamma,POW.O2.Theta,POW.O2.Alpha,POW.O2.BetaL,POW.O2.BetaH,POW.O2.Gamma,POW.P8.Theta,POW.P8.Alpha,POW.P8.BetaL,POW.P8.BetaH,POW.P8.Gamma,POW.T8.Theta,POW.T8.Alpha,POW.T8.BetaL,POW.T8.BetaH,POW.T8.Gamma,POW.FC6.Theta,POW.FC6.Alpha,POW.FC6.BetaL,POW.FC6.BetaH,POW.FC6.Gamma,POW.F4.Theta,POW.F4.Alpha,POW.F4.BetaL,POW.F4.BetaH,POW.F4.Gamma,POW.F8.Theta,POW.F8.Alpha,POW.F8.BetaL,POW.F8.BetaH,POW.F8.Gamma,POW.AF4.Theta,POW.AF4.Alpha,POW.AF4.BetaL,POW.AF4.BetaH,POW.AF4.Gamma
1606590779.541098,77.000000,0.000000,4170.128418,4196.794922,4188.717773,4222.436035,4135.000000,4201.282227,4181.282227,4184.743652,4188.717773,4219.487305,4158.846191,4165.769043,4213.461426,4154.871582,3194.000000,4.000000,,,,0.000000,4.000000,4.000000,4.000000,4.000000,4.000000,4.000000,4.000000,4.000000,4.000000,4.000000,4.000000,4.000000,4.000000,4.000000,100.000000,,,,,,,,,,,,,,,,,,,,,,,,,,,,,,,,,,,,,,,,,,,,,,,,,,,,,,,,,,,,,,,,,,,,,,,,,,,,,,,,,,,,,,,,,,,,,,,,,,,,,,,,,,,,,,,,,
1606590779.548796,78.000000,0.000000,4163.333496,4191.922852,4180.256348,4216.153809,4122.692383,4196.153809,4184.871582,4190.512695,4195.128418,4234.871582,4172.820313,4160.128418,4220.384766,4154.230957,3130.000000,4.000000,,,,0.000000,4.000000,4.000000,4.000000,4.000000,4.000000,4.000000,4.000000,4.000000,4.000000,4.000000,4.000000,4.000000,4.000000,4.000000,100.000000,,,,,,,,,,,,,,,,,,,,,,,,,,,,,,,,,,,,,,,,,,,,2.398199,0.936195,0.403523,0.320341,0.369375,0.893773,0.353419,0.341031,0.330922,0.263982,1.373177,0.753198,0.349013,0.334718,0.273622,0.589819,0.463368,0.283794,0.500764,0.537336,0.919602,0.986582,0.624726,0.473868,0.777189,0.797906,0.718992,0.155360,0.127336,0.179838,0.452002,0.398547,0.204688,0.148438,0.135154,0.280748,0.587447,0.297135,0.320358,0.152461,0.647753,1.056968,0.717973,0.426369,0.385930,1.142890,1.040021,0.661517,0.798989,0.812579,1.272911,0.525221,0.497785,0.592843,0.529701,1.506750,0.956702,0.277580,0.714462,1.485841,1.145762,0.518712,0.488694,0.419793,0.530515,2.091945,0.598024,0.607683,0.406722,0.645707
1606590779.556596,79.000000,0.000000,4170.769043,4196.666504,4187.820313,4226.282227,4110.256348,4195.256348,4189.743652,4202.820313,4212.436035,4249.615234,4178.846191,4176.538574,4234.743652,4166.794922,3360.000000,4.000000,,,,0.000000,4.000000,4.000000,4.000000,4.000000,4.000000,4.000000,4.000000,4.000000,4.000000,4.000000,4.000000,4.000000,4.000000,4.000000,100.000000,,,,,,,,,,,,,,,,,,,,,,,,,,,,,,,,,,,,,,,,,,,,,,,,,,,,,,,,,,,,,,,,,,,,,,,,,,,,,,,,,,,,,,,,,,,,,,,,,,,,,,,,,,,,,,,,,
1606590779.564496,80.000000,0.000000,4184.230957,4203.077148,4201.410156,4234.487305,4114.871582,4197.179688,4191.153809,4206.922852,4219.743652,4250.641113,4184.230957,4191.410156,4235.769043,4177.307617,3307.000000,4.000000,,,,0.000000,4.000000,4.000000,4.000000,4.000000,4.000000,4.000000,4.000000,4.000000,4.000000,4.000000,4.000000,4.000000,4.000000,4.000000,100.000000,20.000000,0.000000,0.712467,-0.147644,-0.675049,-0.122070,0.999527,-0.132815,-0.033204,-34.692913,-119.032578,19.589533,,,,,,,,,,,,,,,,,,,,,,,,,,,,,,,,,,,,,,,,,,,,,,,,,,,,,,,,,,,,,,,,,,,,,,,,,,,,,,,,,,,,,,,,,,,,,,,,,,,,,
1606590779.572396,81.000000,0.000000,4186.410156,4200.256348,4194.743652,4230.512695,4123.077148,4196.153809,4185.000000,4197.948730,4205.000000,4246.153809,4183.974121,4182.692383,4233.333496,4171.666504,3194.000000,4.000000,,,,0.000000,4.000000,4.000000,4.000000,4.000000,4.000000,4.000000,4.000000,4.000000,4.000000,4.000000,4.000000,4.000000,4.000000,4.000000,100.000000,,,,,,,,,,,,,,,,,,,,,,,,,,,,,,,,,,,,,,,,,,,,,,,,,,,,,,,,,,,,,,,,,,,,,,,,,,,,,,,,,,,,,,,,,,,,,,,,,,,,,,,,,,,,,,,,,
1606590779.580295,82.000000,0.000000,4182.948730,4200.512695,4189.871582,4230.128418,4125.384766,4196.666504,4182.692383,4193.846191,4195.769043,4235.256348,4179.358887,4180.256348,4238.077148,4169.743652,3130.000000,4.000000,,,,0.000000,4.000000,4.000000,4.000000,4.000000,4.000000,4.000000,4.000000,4.000000,4.000000,4.000000,4.000000,4.000000,4.000000,4.000000,100.000000,,,,,,,,,,,,,,,,,,,,,,,,,,,,,,,,,,,,,,,,,,,,,,,,,,,,,,,,,,,,,,,,,,,,,,,,,,,,,,,,,,,,,,,,,,,,,,,,,,,,,,,,,,,,,,,,,
1606590779.588296,83.000000,0.000000,4184.487305,4204.230957,4200.128418,4234.615234,4125.769043,4200.384766,4190.000000,4200.384766,4201.922852,4232.436035,4175.384766,4190.128418,4233.461426,4173.333496,3360.000000,4.000000,,,,0.000000,4.000000,4.000000,4.000000,4.000000,4.000000,4.000000,4.000000,4.000000,4.000000,4.000000,4.000000,4.000000,4.000000,4.000000,100.000000,,,,,,,,,,,,,,,,,,,,,,,,,,,,,,,,,,,,,,,,,,,,,,,,,,,,,,,,,,,,,,,,,,,,,,,,,,,,,,,,,,,,,,,,,,,,,,,,,,,,,,,,,,,,,,,,,
1606590779.596197,84.000000,0.000000,4187.436035,4204.230957,4199.487305,4235.128418,4125.641113,4202.179688,4190.512695,4198.974121,4201.410156,4241.282227,4176.794922,4185.384766,4227.948730,4170.000000,3307.000000,4.000000,,,,0.000000,4.000000,4.000000,4.000000,4.000000,4.000000,4.000000,4.000000,4.000000,4.000000,4.000000,4.000000,4.000000,4.000000,4.000000,100.000000,21.000000,0.000000,0.712565,-0.147705,-0.674866,-0.122437,0.997574,-0.121584,-0.028809,-35.739681,-120.228882,19.439995,,,,,,,,,,,,,,,,,,,,,,,,,,,,,,,,,,,,,,,,,,,,,,,,,,,,,,,,,,,,,,,,,,,,,,,,,,,,,,,,,,,,,,,,,,,,,,,,,,,,,
1606590779.604098,85.000000,0.000000,4181.794922,4198.589844,4187.692383,4227.948730,4125.512695,4199.615234,4184.358887,4190.641113,4190.641113,4234.487305,4179.871582,4179.102539,4234.358887,4168.205078,3194.000000,4.000000,,,,0.000000,4.000000,4.000000,4.000000,4.000000,4.000000,4.000000,4.000000,4.000000,4.000000,4.000000,4.000000,4.000000,4.000000,4.000000,100.000000,,,,,,,,,,,,,,,,,,,,,,,,,,,,,,,,,,,,,,,,,,,,,,,,,,,,,,,,,,,,,,,,,,,,,,,,,,,,,,,,,,,,,,,,,,,,,,,,,,,,,,,,,,,,,,,,,
1606590779.611997,86.000000,0.000000,4171.538574,4189.743652,4184.487305,4218.077148,4126.666504,4199.358887,4182.051270,4186.025879,4183.589844,4225.641113,4180.000000,4185.256348,4237.563965,4170.897461,3130.000000,4.000000,,,,0.000000,4.000000,4.000000,4.000000,4.000000,4.000000,4.000000,4.000000,4.000000,4.000000,4.000000,4.000000,4.000000,4.000000,4.000000,100.000000,,,,,,,,,,,,,,,,,,,,,,,,,,,,,,,,,,,,,,,,,,,,,,,,,,,,,,,,,,,,,,,,,,,,,,,,,,,,,,,,,,,,,,,,,,,,,,,,,,,,,,,,,,,,,,,,,
1606590779.619997,87.000000,0.000000,4166.922852,4187.179688,4184.102539,4216.153809,4128.846191,4202.051270,4182.820313,4185.897461,4180.897461,4227.051270,4176.410156,4184.230957,4231.153809,4166.538574,3360.000000,4.000000,,,,0.000000,4.000000,4.000000,4.000000,4.000000,4.000000,4.000000,4.000000,4.000000,4.000000,4.000000,4.000000,4.000000,4.000000,4.000000,100.000000,,,,,,,,,,,,,,,,,,,,,,,,,,,,,,,,,,,,,,,,,,,,,,,,,,,,,,,,,,,,,,,,,,,,,,,,,,,,,,,,,,,,,,,,,,,,,,,,,,,,,,,,,,,,,,,,,
1606590779.627897,88.000000,0.000000,4169.743652,4189.743652,4185.641113,4219.615234,4127.563965,4202.692383,4185.256348,4192.436035,4187.820313,4228.974121,4183.717773,4176.282227,4231.666504,4162.948730,3307.000000,4.000000,,,,0.000000,4.000000,4.000000,4.000000,4.000000,4.000000,4.000000,4.000000,4.000000,4.000000,4.000000,4.000000,4.000000,4.000000,4.000000,100.000000,22.000000,0.000000,0.712580,-0.147583,-0.674866,-0.122498,1.023453,-0.123049,-0.053712,-35.141529,-119.780273,18.841841,,,,,,,,,,,,,,,,,,,,,,,,,,,,,,,,,,,,,,,,,,,,,,,,,,,,,,,,,,,,,,,,,,,,,,,,,,,,,,,,,,,,,,,,,,,,,,,,,,,,,
1606590779.635796,89.000000,0.000000,4171.538574,4193.461426,4191.538574,4219.102539,4123.461426,4200.256348,4187.692383,4201.153809,4195.641113,4227.563965,4188.717773,4179.358887,4236.410156,4168.589844,3194.000000,4.000000,,,,0.000000,4.000000,4.000000,4.000000,4.000000,4.000000,4.000000,4.000000,4.000000,4.000000,4.000000,4.000000,4.000000,4.000000,4.000000,100.000000,,,,,,,,,,,,,,,,,,,,,,,,,,,,,,,,,,,,,,,,,,,,,,,,,,,,,,,,,,,,,,,,,,,,,,,,,,,,,,,,,,,,,,,,,,,,,,,,,,,,,,,,,,,,,,,,,
1606590779.643694,90.000000,0.000000,4169.487305,4192.436035,4193.077148,4216.153809,4122.692383,4200.128418,4186.025879,4197.820313,4193.333496,4231.410156,4182.051270,4186.666504,4235.128418,4174.871582,3130.000000,4.000000,,,,0.000000,4.000000,4.000000,4.000000,4.000000,4.000000,4.000000,4.000000,4.000000,4.000000,4.000000,4.000000,4.000000,4.000000,4.000000,100.000000,,,,,,,,,,,,,,,,,,,,,,,,,,,,,,,,,,,,,,,,,,,,,,,,,,,,,,,,,,,,,,,,,,,,,,,,,,,,,,,,,,,,,,,,,,,,,,,,,,,,,,,,,,,,,,,,,
1606590779.651493,91.000000,0.000000,4171.282227,4187.179688,4194.487305,4218.589844,4125.128418,4199.871582,4185.512695,4192.436035,4193.077148,4238.205078,4182.820313,4189.743652,4236.153809,4178.846191,3360.000000,4.000000,,,,0.000000,4.000000,4.000000,4.000000,4.000000,4.000000,4.000000,4.000000,4.000000,4.000000,4.000000,4.000000,4.000000,4.000000,4.000000,100.000000,,,,,,,,,,,,,,,,,,,,,,,,,,,,,,,,,,,,,,,,,,,,,,,,,,,,,,,,,,,,,,,,,,,,,,,,,,,,,,,,,,,,,,,,,,,,,,,,,,,,,,,,,,,,,,,,,
1606590779.659191,92.000000,0.000000,4179.871582,4192.820313,4203.077148,4228.205078,4122.692383,4197.563965,4191.282227,4200.384766,4205.512695,4248.717773,4191.666504,4198.846191,4245.384766,4187.948730,3307.000000,4.000000,,,,0.000000,4.000000,4.000000,4.000000,4.000000,4.000000,4.000000,4.000000,4.000000,4.000000,4.000000,4.000000,4.000000,4.000000,4.000000,100.000000,23.000000,0.000000,0.712429,-0.146912,-0.675293,-0.121826,1.000015,-0.115236,-0.055177,-34.543373,-121.126114,18.393225,,,,,,,,,,,,,,,,,,,,,,,,,,,,,,,,,,,,,,,,,,,,,,,,,,,,,,,,,,,,,,,,,,,,,,,,,,,,,,,,,,,,,,,,,,,,,,,,,,,,,
1606590779.666889,93.000000,0.000000,4185.000000,4202.307617,4207.307617,4232.051270,4117.307617,4197.051270,4194.358887,4205.000000,4210.128418,4256.153809,4194.230957,4202.179688,4246.794922,4190.128418,3194.000000,4.000000,,,,0.000000,4.000000,4.000000,4.000000,4.000000,4.000000,4.000000,4.000000,4.000000,4.000000,4.000000,4.000000,4.000000,4.000000,4.000000,100.000000,,,,,,,,,,,,,,,,,,,,,,,,,,,,,,,,,,,,,,,,,,,,,,,,,,,,,,,,,,,,,,,,,,,,,,,,,,,,,,,,,,,,,,,,,,,,,,,,,,,,,,,,,,,,,,,,,
1606590779.674588,94.000000,0.000000,4185.128418,4196.410156,4198.846191,4228.333496,4121.794922,4198.333496,4192.436035,4200.256348,4204.358887,4251.794922,4190.641113,4189.615234,4237.692383,4180.769043,3130.000000,4.000000,,,,0.000000,4.000000,4.000000,4.000000,4.000000,4.000000,4.000000,4.000000,4.000000,4.000000,4.000000,4.000000,4.000000,4.000000,4.000000,100.000000,,,,,,,,,,,,,,,,,,,,,,,,,,,,,,,,,,,,,,,,,,,,2.597156,1.068766,0.469151,0.393659,0.353480,0.889797,0.364448,0.293443,0.346865,0.261087,1.416309,0.770884,0.413554,0.385728,0.288829,0.593057,0.440997,0.239463,0.570506,0.530864,0.879732,1.039367,0.638212,0.531288,0.763630,0.770233,0.709108,0.172973,0.102983,0.168738,0.433853,0.437306,0.171904,0.137023,0.142601,0.345650,0.519887,0.404631,0.315205,0.151713,0.555416,0.964084,0.852536,0.435789,0.350349,1.301376,1.042207,0.770847,0.793811,0.830014,1.322700,0.664002,0.488051,0.616349,0.545318,1.494227,1.112976,0.317275,0.705038,1.384671,1.444351,0.598279,0.481685,0.461221,0.498644,2.032280,0.642299,0.597950,0.457316,0.600041
1606590779.682386,95.000000,0.000000,4182.563965,4187.179688,4191.282227,4226.153809,4128.846191,4201.025879,4197.563965,4199.487305,4206.410156,4252.307617,4194.615234,4184.102539,4236.922852,4177.436035,3360.000000,4.000000,,,,0.000000,4.000000,4.000000,4.000000,4.000000,4.000000,4.000000,4.000000,4.000000,4.000000,4.000000,4.000000,4.000000,4.000000,4.000000,100.000000,,,,,,,,,,,,,,,,,,,,,,,,,,,,,,,,,,,,,,,,,,,,,,,,,,,,,,,,,,,,,,,,,,,,,,,,,,,,,,,,,,,,,,,,,,,,,,,,,,,,,,,,,,,,,,,,,
1606590779.690084,96.000000,0.000000,4171.922852,4187.692383,4186.025879,4220.512695,4126.282227,4201.666504,4198.205078,4200.769043,4206.666504,4256.666504,4198.974121,4190.512695,4240.000000,4175.384766,3307.000000,4.000000,,,,0.000000,4.000000,4.000000,4.000000,4.000000,4.000000,4.000000,4.000000,4.000000,4.000000,4.000000,4.000000,4.000000,4.000000,4.000000,100.000000,24.000000,0.000000,0.712095,-0.145447,-0.676147,-0.120789,1.002457,-0.125490,-0.052247,-35.141529,-120.827042,19.290455,,,,,,,,,,,,,,,,,,,,,,,,,,,,,,,,,,,,,,,,,,,,,,,,,,,,,,,,,,,,,,,,,,,,,,,,,,,,,,,,,,,,,,,,,,,,,,,,,,,,,
1606590779.697782,97.000000,0.000000,4161.538574,4186.153809,4180.897461,4212.948730,4129.102539,4201.538574,4191.410156,4199.358887,4199.743652,4246.025879,4188.461426,4186.282227,4232.051270,4165.000000,3194.000000,4.000000,,,,0.000000,4.000000,4.000000,4.000000,4.000000,4.000000,4.000000,4.000000,4.000000,4.000000,4.000000,4.000000,4.000000,4.000000,4.000000,100.000000,,,,,,,,,,,,,,,,,,,,,,,,,,,,,,,,,,,,,,,,,,,,,,,,,,,,,,,,,,,,,,,,,,,,,,,,,,,,,,,,,,,,,,,,,,,,,,,,,,,,,,,,,,,,,,,,,
1606590779.705478,98.000000,0.000000,4165.512695,4186.282227,4183.205078,4215.769043,4131.666504,4203.846191,4192.307617,4193.717773,4195.897461,4230.512695,4175.641113,4174.615234,4225.769043,4163.974121,3130.000000,4.000000,,,,0.000000,4.000000,4.000000,4.000000,4.000000,4.000000,4.000000,4.000000,4.000000,4.000000,4.000000,4.000000,4.000000,4.000000,4.000000,100.000000,,,,,,,,,,,,,,,,,,,,,,,,,,,,,,,,,,,,,,,,,,,,,,,,,,,,,,,,,,,,,,,,,,,,,,,,,,,,,,,,,,,,,,,,,,,,,,,,,,,,,,,,,,,,,,,,,
1606590779.713075,99.000000,0.000000,4170.769043,4187.692383,4184.743652,4217.692383,4117.307617,4199.743652,4197.051270,4192.820313,4195.512695,4232.436035,4173.717773,4170.512695,4228.077148,4170.000000,3360.000000,4.000000,,,,0.000000,4.000000,4.000000,4.000000,4.000000,4.000000,4.000000,4.000000,4.000000,4.000000,4.000000,4.000000,4.000000,4.000000,4.000000,100.000000,,,,,,,,,,,,,,,,,,,,,,,,,,,,,,,,,,,,,,,,,,,,,,,,,,,,,,,,,,,,,,,,,,,,,,,,,,,,,,,,,,,,,,,,,,,,,,,,,,,,,,,,,,,,,,,,,
1606590779.720773,100.000000,0.000000,4162.820313,4183.461426,4175.641113,4206.282227,4104.102539,4189.871582,4193.974121,4194.358887,4188.846191,4233.205078,4171.025879,4172.436035,4221.794922,4161.794922,3307.000000,4.000000,,,,0.000000,4.000000,4.000000,4.000000,4.000000,4.000000,4.000000,4.000000,4.000000,4.000000,4.000000,4.000000,4.000000,4.000000,4.000000,100.000000,25.000000,0.000000,0.711673,-0.143921,-0.677124,-0.119629,0.993179,-0.134768,-0.046387,-34.543373,-119.182114,18.393225,,,,,,,,,,,,,,,,,,,,,,,,,,,,,,,,,,,,,,,,,,,,,,,,,,,,,,,,,,,,,,,,,,,,,,,,,,,,,,,,,,,,,,,,,,,,,,,,,,,,,
1606590779.728472,101.000000,0.000000,4154.871582,4180.769043,4168.717773,4198.333496,4109.871582,4187.179688,4189.487305,4189.230957,4182.307617,4219.230957,4164.871582,4172.307617,4213.077148,4151.922852,3194.000000,4.000000,,,,0.000000,4.000000,4.000000,4.000000,4.000000,4.000000,4.000000,4.000000,4.000000,4.000000,4.000000,4.000000,4.000000,4.000000,4.000000,100.000000,,,,,,,,,,,,,,,,,,,,,,,,,,,,,,,,,,,,,,,,,,,,,,,,,,,,,,,,,,,,,,,,,,,,,,,,,,,,,,,,,,,,,,,,,,,,,,,,,,,,,,,,,,,,,,,,,
1606590779.736371,102.000000,0.000000,4156.538574,4183.461426,4173.333496,4201.922852,4110.641113,4188.846191,4192.692383,4185.000000,4184.102539,4220.256348,4170.256348,4168.077148,4218.461426,4155.128418,3130.000000,4.000000,,,,0.000000,4.000000,4.000000,4.000000,4.000000,4.000000,4.000000,4.000000,4.000000,4.000000,4.000000,4.000000,4.000000,4.000000,4.000000,100.000000,,,,,,,,,,,,,,,,,,,,,,,,,,,,,,,,,,,,,,,,,,,,,,,,,,,,,,,,,,,,,,,,,,,,,,,,,,,,,,,,,,,,,,,,,,,,,,,,,,,,,,,,,,,,,,,,,
1606590779.744370,103.000000,0.000000,4162.563965,4185.256348,4178.717773,4204.358887,4100.256348,4185.897461,4197.179688,4187.436035,4185.512695,4231.538574,4175.256348,4172.179688,4223.846191,4160.512695,3360.000000,4.000000,,,,0.000000,4.000000,4.000000,4.000000,4.000000,4.000000,4.000000,4.000000,4.000000,4.000000,4.000000,4.000000,4.000000,4.000000,4.000000,100.000000,,,,,,,,,,,,,,,,,,,,,,,,,,,,,,,,,,,,,,,,,,,,,,,,,,,,,,,,,,,,,,,,,,,,,,,,,,,,,,,,,,,,,,,,,,,,,,,,,,,,,,,,,,,,,,,,,
1606590779.752268,104.000000,0.000000,4164.615234,4184.358887,4181.538574,4199.871582,4096.666504,4183.846191,4199.102539,4187.051270,4185.769043,4225.256348,4170.641113,4181.666504,4219.358887,4165.128418,3307.000000,4.000000,,,,0.000000,4.000000,4.000000,4.000000,4.000000,4.000000,4.000000,4.000000,4.000000,4.000000,4.000000,4.000000,4.000000,4.000000,4.000000,100.000000,26.000000,0.000000,0.711292,-0.143250,-0.677795,-0.118896,0.999039,-0.137209,-0.052247,-35.889221,-118.583961,19.589533,,,,,,,,,,,,,,,,,,,,,,,,,,,,,,,,,,,,,,,,,,,,,,,,,,,,,,,,,,,,,,,,,,,,,,,,,,,,,,,,,,,,,,,,,,,,,,,,,,,,,
1606590779.759967,105.000000,0.000000,4165.641113,4184.615234,4182.948730,4200.384766,4100.384766,4184.230957,4195.897461,4182.692383,4186.282227,4216.025879,4169.230957,4180.512695,4214.615234,4171.025879,3194.000000,4.000000,,,,0.000000,4.000000,4.000000,4.000000,4.000000,4.000000,4.000000,4.000000,4.000000,4.000000,4.000000,4.000000,4.000000,4.000000,4.000000,100.000000,,,,,,,,,,,,,,,,,,,,,,,,,,,,,,,,,,,,,,,,,,,,,,,,,,,,,,,,,,,,,,,,,,,,,,,,,,,,,,,,,,,,,,,,,,,,,,,,,,,,,,,,,,,,,,,,,
1606590779.767767,106.000000,0.000000,4168.717773,4187.692383,4184.871582,4208.846191,4101.538574,4183.333496,4193.461426,4185.256348,4184.102539,4217.948730,4172.820313,4173.717773,4218.205078,4168.846191,3130.000000,4.000000,,,,0.000000,4.000000,4.000000,4.000000,4.000000,4.000000,4.000000,4.000000,4.000000,4.000000,4.000000,4.000000,4.000000,4.000000,4.000000,100.000000,,,,,,,,,,,,,,,,,,,,,,,,,,,,,,,,,,,,,,,,,,,,,,,,,,,,,,,,,,,,,,,,,,,,,,,,,,,,,,,,,,,,,,,,,,,,,,,,,,,,,,,,,,,,,,,,,
1606590779.775767,107.000000,0.000000,4168.717773,4188.589844,4187.820313,4209.615234,4100.256348,4183.077148,4195.384766,4186.282227,4177.820313,4216.410156,4169.487305,4172.948730,4220.000000,4160.128418,3360.000000,4.000000,,,,0.000000,4.000000,4.000000,4.000000,4.000000,4.000000,4.000000,4.000000,4.000000,4.000000,4.000000,4.000000,4.000000,4.000000,4.000000,100.000000,,,,,,,,,,,,,,,,,,,,,,,,,,,,,,,,,,,,,,,,,,,,,,,,,,,,,,,,,,,,,,,,,,,,,,,,,,,,,,,,,,,,,,,,,,,,,,,,,,,,,,,,,,,,,,,,,
1606590779.783665,108.000000,0.000000,4163.077148,4186.922852,4182.948730,4199.871582,4100.512695,4181.922852,4195.769043,4180.256348,4174.230957,4216.794922,4166.794922,4175.128418,4210.897461,4156.794922,3307.000000,4.000000,,,,0.000000,4.000000,4.000000,4.000000,4.000000,4.000000,4.000000,4.000000,4.000000,4.000000,4.000000,4.000000,4.000000,4.000000,4.000000,100.000000,27.000000,0.000000,0.711169,-0.143250,-0.677979,-0.118591,1.009293,-0.116213,-0.048829,-35.739681,-120.228882,18.692303,,,,,,,,,,,,,,,,,,,,,,,,,,,,,,,,,,,,,,,,,,,,,,,,,,,,,,,,,,,,,,,,,,,,,,,,,,,,,,,,,,,,,,,,,,,,,,,,,,,,,
1606590779.791365,109.000000,0.000000,4154.102539,4183.846191,4172.563965,4193.589844,4105.256348,4183.461426,4194.743652,4177.436035,4172.948730,4219.615234,4166.666504,4167.820313,4203.461426,4153.589844,3194.000000,4.000000,,,,0.000000,4.000000,4.000000,4.000000,4.000000,4.000000,4.000000,4.000000,4.000000,4.000000,4.000000,4.000000,4.000000,4.000000,4.000000,100.000000,,,,,,,,,,,,,,,,,,,,,,,,,,,,,,,,,,,,,,,,,,,,,,,,,,,,,,,,,,,,,,,,,,,,,,,,,,,,,,,,,,,,,,,,,,,,,,,,,,,,,,,,,,,,,,,,,
1606590779.799264,110.000000,0.000000,4151.025879,4179.230957,4168.333496,4196.538574,4113.974121,4189.358887,4193.846191,4179.871582,4171.025879,4212.179688,4161.666504,4162.563965,4205.384766,4149.102539,3130.000000,4.000000,,,,0.000000,4.000000,4.000000,4.000000,4.000000,4.000000,4.000000,4.000000,4.000000,4.000000,4.000000,4.000000,4.000000,4.000000,4.000000,100.000000,,,,,,,,,,,,,,,,,,,,,,,,,,,,,,,,,,,,,,,,,,,,2.846497,1.191221,0.543179,0.471020,0.334020,0.854764,0.389546,0.241077,0.346706,0.259660,1.394469,0.771133,0.453608,0.423565,0.293048,0.573974,0.418843,0.190075,0.609891,0.510876,0.767491,1.023684,0.628753,0.599603,0.690461,0.689447,0.663038,0.199413,0.091887,0.150736,0.398673,0.472682,0.158810,0.129348,0.147653,0.413726,0.462694,0.608253,0.289266,0.149532,0.546884,0.968637,1.096594,0.429439,0.311834,1.571174,1.204325,0.847343,0.755491,0.821931,1.486256,0.865590,0.461495,0.647748,0.554226,1.525994,1.244143,0.390938,0.645809,1.199573,1.830815,0.758834,0.471794,0.483486,0.453849,2.045559,0.708611,0.619508,0.507992,0.535705
1606590779.807064,111.000000,0.000000,4153.589844,4178.974121,4170.897461,4198.205078,4113.205078,4190.000000,4199.871582,4185.256348,4181.794922,4212.436035,4166.794922,4177.436035,4213.846191,4157.563965,3360.000000,4.000000,,,,0.000000,4.000000,4.000000,4.000000,4.000000,4.000000,4.000000,4.000000,4.000000,4.000000,4.000000,4.000000,4.000000,4.000000,4.000000,100.000000,,,,,,,,,,,,,,,,,,,,,,,,,,,,,,,,,,,,,,,,,,,,,,,,,,,,,,,,,,,,,,,,,,,,,,,,,,,,,,,,,,,,,,,,,,,,,,,,,,,,,,,,,,,,,,,,,
1606590779.814963,112.000000,0.000000,4153.333496,4183.333496,4176.025879,4197.820313,4105.000000,4186.538574,4204.871582,4182.948730,4188.077148,4230.384766,4181.025879,4187.436035,4222.307617,4170.769043,3307.000000,4.000000,,,,0.000000,4.000000,4.000000,4.000000,4.000000,4.000000,4.000000,4.000000,4.000000,4.000000,4.000000,4.000000,4.000000,4.000000,4.000000,100.000000,28.000000,0.000000,0.711092,-0.142639,-0.678284,-0.118042,1.010758,-0.138186,-0.048829,-35.889221,-119.780273,19.589533,,,,,,,,,,,,,,,,,,,,,,,,,,,,,,,,,,,,,,,,,,,,,,,,,,,,,,,,,,,,,,,,,,,,,,,,,,,,,,,,,,,,,,,,,,,,,,,,,,,,,
1606590779.822863,113.000000,0.000000,4153.461426,4184.230957,4178.974121,4198.974121,4104.230957,4185.512695,4201.666504,4177.051270,4176.794922,4233.461426,4183.077148,4176.282227,4226.153809,4165.641113,3194.000000,4.000000,,,,0.000000,4.000000,4.000000,4.000000,4.000000,4.000000,4.000000,4.000000,4.000000,4.000000,4.000000,4.000000,4.000000,4.000000,4.000000,100.000000,,,,,,,,,,,,,,,,,,,,,,,,,,,,,,,,,,,,,,,,,,,,,,,,,,,,,,,,,,,,,,,,,,,,,,,,,,,,,,,,,,,,,,,,,,,,,,,,,,,,,,,,,,,,,,,,,
1606590779.830762,114.000000,0.000000,4157.436035,4182.179688,4176.410156,4198.589844,4110.769043,4186.794922,4200.512695,4177.692383,4175.128418,4223.205078,4174.102539,4175.512695,4223.717773,4160.256348,3130.000000,4.000000,,,,0.000000,4.000000,4.000000,4.000000,4.000000,4.000000,4.000000,4.000000,4.000000,4.000000,4.000000,4.000000,4.000000,4.000000,4.000000,100.000000,,,,,,,,,,,,,,,,,,,,,,,,,,,,,,,,,,,,,,,,,,,,,,,,,,,,,,,,,,,,,,,,,,,,,,,,,,,,,,,,,,,,,,,,,,,,,,,,,,,,,,,,,,,,,,,,,
1606590779.838761,115.000000,0.000000,4156.025879,4182.307617,4172.179688,4197.692383,4108.077148,4186.153809,4206.153809,4181.794922,4182.563965,4229.102539,4172.436035,4188.846191,4220.512695,4167.436035,3360.000000,4.000000,,,,0.000000,4.000000,4.000000,4.000000,4.000000,4.000000,4.000000,4.000000,4.000000,4.000000,4.000000,4.000000,4.000000,4.000000,4.000000,100.000000,,,,,,,,,,,,,,,,,,,,,,,,,,,,,,,,,,,,,,,,,,,,,,,,,,,,,,,,,,,,,,,,,,,,,,,,,,,,,,,,,,,,,,,,,,,,,,,,,,,,,,,,,,,,,,,,,
1606590779.846659,116.000000,0.000000,4156.794922,4183.333496,4170.897461,4198.846191,4098.717773,4185.000000,4208.205078,4178.333496,4180.897461,4237.436035,4181.922852,4185.384766,4225.641113,4170.512695,3307.000000,4.000000,,,,0.000000,4.000000,4.000000,4.000000,4.000000,4.000000,4.000000,4.000000,4.000000,4.000000,4.000000,4.000000,4.000000,4.000000,4.000000,100.000000,29.000000,0.000000,0.710968,-0.141724,-0.678711,-0.117432,1.000504,-0.118166,-0.053712,-35.141529,-119.032578,17.795071,,,,,,,,,,,,,,,,,,,,,,,,,,,,,,,,,,,,,,,,,,,,,,,,,,,,,,,,,,,,,,,,,,,,,,,,,,,,,,,,,,,,,,,,,,,,,,,,,,,,,
1606590779.854358,117.000000,0.000000,4163.205078,4183.589844,4172.692383,4200.000000,4098.717773,4185.897461,4206.794922,4172.436035,4177.307617,4227.948730,4182.307617,4177.948730,4230.512695,4167.436035,3194.000000,4.000000,,,,0.000000,4.000000,4.000000,4.000000,4.000000,4.000000,4.000000,4.000000,4.000000,4.000000,4.000000,4.000000,4.000000,4.000000,4.000000,100.000000,,,,,,,,,,,,,,,,,,,,,,,,,,,,,,,,,,,,,,,,,,,,,,,,,,,,,,,,,,,,,,,,,,,,,,,,,,,,,,,,,,,,,,,,,,,,,,,,,,,,,,,,,,,,,,,,,
1606590779.862056,118.000000,0.000000,4168.205078,4184.358887,4178.461426,4201.538574,4104.871582,4187.051270,4208.974121,4180.384766,4183.205078,4225.000000,4178.589844,4186.794922,4229.487305,4168.717773,3130.000000,4.000000,,,,0.000000,4.000000,4.000000,4.000000,4.000000,4.000000,4.000000,4.000000,4.000000,4.000000,4.000000,4.000000,4.000000,4.000000,4.000000,100.000000,,,,,,,,,,,,,,,,,,,,,,,,,,,,,,,,,,,,,,,,,,,,,,,,,,,,,,,,,,,,,,,,,,,,,,,,,,,,,,,,,,,,,,,,,,,,,,,,,,,,,,,,,,,,,,,,,
1606590779.869855,119.000000,0.000000,4168.333496,4184.102539,4183.589844,4201.538574,4104.871582,4186.153809,4209.615234,4183.846191,4181.153809,4229.743652,4179.743652,4186.794922,4227.051270,4170.128418,3360.000000,4.000000,,,,0.000000,4.000000,4.000000,4.000000,4.000000,4.000000,4.000000,4.000000,4.000000,4.000000,4.000000,4.000000,4.000000,4.000000,4.000000,100.000000,,,,,,,,,,,,,,,,,,,,,,,,,,,,,,,,,,,,,,,,,,,,,,,,,,,,,,,,,,,,,,,,,,,,,,,,,,,,,,,,,,,,,,,,,,,,,,,,,,,,,,,,,,,,,,,,,
1606590779.877553,120.000000,0.000000,4169.615234,4184.230957,4185.512695,4201.666504,4101.666504,4184.230957,4204.743652,4175.512695,4173.589844,4225.769043,4177.051270,4178.333496,4226.538574,4168.717773,3307.000000,4.000000,,,,0.000000,4.000000,4.000000,4.000000,4.000000,4.000000,4.000000,4.000000,4.000000,4.000000,4.000000,4.000000,4.000000,4.000000,4.000000,100.000000,30.000000,0.000000,0.710615,-0.140198,-0.679565,-0.116455,0.996109,-0.111330,-0.046876,-34.842449,-120.228882,18.692303,,,,,,,,,,,,,,,,,,,,,,,,,,,,,,,,,,,,,,,,,,,,,,,,,,,,,,,,,,,,,,,,,,,,,,,,,,,,,,,,,,,,,,,,,,,,,,,,,,,,,
1606590779.885251,121.000000,0.000000,4179.230957,4187.051270,4191.153809,4208.717773,4103.461426,4184.230957,4206.153809,4178.077148,4179.102539,4224.871582,4177.563965,4182.948730,4231.153809,4171.282227,3194.000000,4.000000,,,,0.000000,4.000000,4.000000,4.000000,4.000000,4.000000,4.000000,4.000000,4.000000,4.000000,4.000000,4.000000,4.000000,4.000000,4.000000,100.000000,,,,,,,,,,,,,,,,,,,,,,,,,,,,,,,,,,,,,,,,,,,,,,,,,,,,,,,,,,,,,,,,,,,,,,,,,,,,,,,,,,,,,,,,,,,,,,,,,,,,,,,,,,,,,,,,,
1606590779.892949,122.000000,0.000000,4185.384766,4188.846191,4193.974121,4214.230957,4104.743652,4185.128418,4213.333496,4187.051270,4187.436035,4232.820313,4187.692383,4188.589844,4234.358887,4174.230957,3130.000000,4.000000,,,,0.000000,4.000000,4.000000,4.000000,4.000000,4.000000,4.000000,4.000000,4.000000,4.000000,4.000000,4.000000,4.000000,4.000000,4.000000,100.000000,,,,,,,,,,,,,,,,,,,,,,,,,,,,,,,,,,,,,,,,,,,,,,,,,,,,,,,,,,,,,,,,,,,,,,,,,,,,,,,,,,,,,,,,,,,,,,,,,,,,,,,,,,,,,,,,,
1606590779.900747,123.000000,0.000000,4176.538574,4185.512695,4187.307617,4207.692383,4102.179688,4184.487305,4215.000000,4185.769043,4183.589844,4231.538574,4186.025879,4184.102539,4227.692383,4172.307617,3360.000000,4.000000,,,,0.000000,4.000000,4.000000,4.000000,4.000000,4.000000,4.000000,4.000000,4.000000,4.000000,4.000000,4.000000,4.000000,4.000000,4.000000,100.000000,,,,,,,,,,,,,,,,,,,,,,,,,,,,,,,,,,,,,,,,,,,,,,,,,,,,,,,,,,,,,,,,,,,,,,,,,,,,,,,,,,,,,,,,,,,,,,,,,,,,,,,,,,,,,,,,,
1606590779.908445,124.000000,0.000000,4167.820313,4183.589844,4182.563965,4202.307617,4105.512695,4185.769043,4215.256348,4182.563965,4176.666504,4225.384766,4172.179688,4180.769043,4221.025879,4168.846191,3307.000000,4.000000,,,,0.000000,4.000000,4.000000,4.000000,4.000000,4.000000,4.000000,4.000000,4.000000,4.000000,4.000000,4.000000,4.000000,4.000000,4.000000,100.000000,31.000000,0.000000,0.710526,-0.139709,-0.679749,-0.116516,1.019058,-0.122560,-0.056641,-35.141529,-119.331657,18.094149,,,,,,,,,,,,,,,,,,,,,,,,,,,,,,,,,,,,,,,,,,,,,,,,,,,,,,,,,,,,,,,,,,,,,,,,,,,,,,,,,,,,,,,,,,,,,,,,,,,,,
1606590779.916143,125.000000,0.000000,4172.307617,4187.179688,4184.743652,4204.230957,4112.948730,4189.615234,4218.974121,4185.897461,4181.922852,4226.794922,4172.948730,4183.717773,4226.025879,4169.102539,3194.000000,4.000000,,,,0.000000,4.000000,4.000000,4.000000,4.000000,4.000000,4.000000,4.000000,4.000000,4.000000,4.000000,4.000000,4.000000,4.000000,4.000000,100.000000,,,,,,,,,,,,,,,,,,,,,,,,,,,,,,,,,,,,,,,,,,,,,,,,,,,,,,,,,,,,,,,,,,,,,,,,,,,,,,,,,,,,,,,,,,,,,,,,,,,,,,,,,,,,,,,,,
1606590779.923841,126.000000,0.000000,4173.846191,4182.692383,4181.410156,4202.436035,4115.769043,4190.512695,4217.692383,4185.128418,4186.282227,4227.307617,4182.563965,4185.769043,4225.000000,4170.000000,3130.000000,4.000000,,,,0.000000,4.000000,4.000000,4.000000,4.000000,4.000000,4.000000,4.000000,4.000000,4.000000,4.000000,4.000000,4.000000,4.000000,4.000000,100.000000,,,,,,,,,,,,,,,,,,,,,,,,,,,,,,,,,,,,,,,,,,,,3.042890,1.277147,0.619892,0.535168,0.316765,0.787776,0.423345,0.191029,0.332432,0.256166,1.281785,0.745822,0.472902,0.440431,0.284708,0.522441,0.407480,0.153756,0.610586,0.476384,0.645459,0.955626,0.609291,0.668036,0.580847,0.587319,0.605569,0.226204,0.089321,0.129444,0.347979,0.526734,0.173287,0.127797,0.148131,0.476743,0.496262,0.886584,0.247951,0.145099,0.634471,1.243112,1.443948,0.398979,0.276165,1.876454,1.587004,0.862846,0.692351,0.784902,1.699888,1.104496,0.425954,0.652842,0.549922,1.572417,1.337437,0.486316,0.560420,0.970117,2.224677,0.973369,0.464319,0.479307,0.406112,2.137180,0.801897,0.666592,0.549136,0.462292
1606590779.931640,127.000000,0.000000,4167.307617,4176.025879,4175.128418,4200.512695,4114.743652,4187.563965,4208.333496,4183.589844,4179.358887,4223.974121,4184.102539,4182.692383,4214.743652,4167.179688,59.000000,4.000000,,,,0.000000,4.000000,4.000000,4.000000,4.000000,4.000000,4.000000,4.000000,4.000000,4.000000,4.000000,4.000000,4.000000,4.000000,4.000000,100.000000,,,,,,,,,,,,,,,,,,,,,,,,,,,,,,,,,,,,,,,,,,,,,,,,,,,,,,,,,,,,,,,,,,,,,,,,,,,,,,,,,,,,,,,,,,,,,,,,,,,,,,,,,,,,,,,,,
1606590779.939539,0.000000,0.000000,4168.589844,4177.051270,4177.307617,4201.794922,4115.512695,4187.948730,4209.358887,4184.230957,4178.974121,4222.051270,4177.948730,4179.230957,4216.922852,4167.948730,3321.000000,4.000000,,,,0.000000,4.000000,4.000000,4.000000,4.000000,4.000000,4.000000,4.000000,4.000000,4.000000,4.000000,4.000000,4.000000,4.000000,4.000000,100.000000,0.000000,0.000000,0.710368,-0.138733,-0.680176,-0.116150,1.010269,-0.120119,-0.056153,-35.440605,-119.780273,18.542763,,,,,,,,,,,,,,,,,,,,,,,,,,,,,,,,,,,,,,,,,,,,,,,,,,,,,,,,,,,,,,,,,,,,,,,,,,,,,,,,,,,,,,,,,,,,,,,,,,,,,
1606590779.947239,1.000000,0.000000,4176.153809,4175.897461,4182.563965,4201.025879,4119.743652,4188.461426,4217.051270,4184.871582,4185.769043,4226.282227,4176.794922,4185.641113,4222.692383,4173.974121,3480.000000,4.000000,,,,0.000000,4.000000,4.000000,4.000000,4.000000,4.000000,4.000000,4.000000,4.000000,4.000000,4.000000,4.000000,4.000000,4.000000,4.000000,100.000000,,,,,,,,,,,,,,,,,,,,,,,,,,,,,,,,,,,,,,,,,,,,,,,,,,,,,,,,,,,,,,,,,,,,,,,,,,,,,,,,,,,,,,,,,,,,,,,,,,,,,,,,,,,,,,,,,
1606590779.955138,2.000000,0.000000,4181.794922,4176.410156,4185.769043,4201.922852,4121.410156,4186.538574,4218.974121,4184.230957,4181.794922,4228.461426,4183.974121,4196.025879,4221.410156,4183.205078,3508.000000,4.000000,,,,0.000000,4.000000,4.000000,4.000000,4.000000,4.000000,4.000000,4.000000,4.000000,4.000000,4.000000,4.000000,4.000000,4.000000,4.000000,100.000000,,,,,,,,,,,,,,,,,,,,,,,,,,,,,,,,,,,,,,,,,,,,,,,,,,,,,,,,,,,,,,,,,,,,,,,,,,,,,,,,,,,,,,,,,,,,,,,,,,,,,,,,,,,,,,,,,
1606590779.963139,3.000000,0.000000,4184.102539,4185.000000,4190.128418,4205.641113,4118.333496,4186.922852,4216.410156,4182.563965,4175.000000,4222.692383,4189.487305,4195.000000,4224.743652,4189.871582,2966.000000,4.000000,,,,0.000000,4.000000,4.000000,4.000000,4.000000,4.000000,4.000000,4.000000,4.000000,4.000000,4.000000,4.000000,4.000000,4.000000,4.000000,100.000000,,,,,,,,,,,,,,,,,,,,,,,,,,,,,,,,,,,,,,,,,,,,,,,,,,,,,,,,,,,,,,,,,,,,,,,,,,,,,,,,,,,,,,,,,,,,,,,,,,,,,,,,,,,,,,,,,
1606590779.971039,4.000000,0.000000,4174.743652,4181.282227,4187.307617,4198.974121,4119.615234,4187.051270,4214.615234,4182.307617,4172.820313,4213.589844,4181.025879,4184.358887,4219.102539,4178.846191,3581.000000,4.000000,,,,0.000000,4.000000,4.000000,4.000000,4.000000,4.000000,4.000000,4.000000,4.000000,4.000000,4.000000,4.000000,4.000000,4.000000,4.000000,100.000000,1.000000,0.000000,0.710136,-0.138184,-0.680603,-0.115723,0.991226,-0.117189,-0.058106,-35.141529,-118.583961,20.038147,,,,,,,,,,,,,,,,,,,,,,,,,,,,,,,,,,,,,,,,,,,,,,,,,,,,,,,,,,,,,,,,,,,,,,,,,,,,,,,,,,,,,,,,,,,,,,,,,,,,,
1606590779.978939,5.000000,0.000000,4163.077148,4168.461426,4175.512695,4188.846191,4124.230957,4184.743652,4215.128418,4182.436035,4174.358887,4215.256348,4173.589844,4182.051270,4208.461426,4168.846191,3034.000000,4.000000,,,,0.000000,4.000000,4.000000,4.000000,4.000000,4.000000,4.000000,4.000000,4.000000,4.000000,4.000000,4.000000,4.000000,4.000000,4.000000,100.000000,,,,,,,,,,,,,,,,,,,,,,,,,,,,,,,,,,,,,,,,,,,,,,,,,,,,,,,,,,,,,,,,,,,,,,,,,,,,,,,,,,,,,,,,,,,,,,,,,,,,,,,,,,,,,,,,,
1606590779.986838,6.000000,0.000000,4160.769043,4169.743652,4170.769043,4189.487305,4118.846191,4184.230957,4217.692383,4183.974121,4182.563965,4227.820313,4182.948730,4187.307617,4215.384766,4178.461426,2808.000000,4.000000,,,,0.000000,4.000000,4.000000,4.000000,4.000000,4.000000,4.000000,4.000000,4.000000,4.000000,4.000000,4.000000,4.000000,4.000000,4.000000,100.000000,,,,,,,,,,,,,,,,,,,,,,,,,,,,,,,,,,,,,,,,,,,,,,,,,,,,,,,,,,,,,,,,,,,,,,,,,,,,,,,,,,,,,,,,,,,,,,,,,,,,,,,,,,,,,,,,,
1606590779.994737,7.000000,0.000000,4158.974121,4171.794922,4170.256348,4190.256348,4110.512695,4185.897461,4215.384766,4186.025879,4188.846191,4225.000000,4183.974121,4183.205078,4220.384766,4180.256348,2791.000000,4.000000,,,,0.000000,4.000000,4.000000,4.000000,4.000000,4.000000,4.000000,4.000000,4.000000,4.000000,4.000000,4.000000,4.000000,4.000000,4.000000,100.000000,,,,,,,,,,,,,,,,,,,,,,,,,,,,,,,,,,,,,,,,,,,,,,,,,,,,,,,,,,,,,,,,,,,,,,,,,,,,,,,,,,,,,,,,,,,,,,,,,,,,,,,,,,,,,,,,,
1606590780.002536,8.000000,0.000000,4151.538574,4165.641113,4165.897461,4184.358887,4111.922852,4185.256348,4207.692383,4181.153809,4181.153809,4212.820313,4164.615234,4172.820313,4207.948730,4164.743652,3369.000000,4.000000,,,,0.000000,4.000000,4.000000,4.000000,4.000000,4.000000,4.000000,4.000000,4.000000,4.000000,4.000000,4.000000,4.000000,4.000000,4.000000,100.000000,2.000000,0.000000,0.710012,-0.137268,-0.680969,-0.115417,0.989273,-0.121584,-0.052247,-35.889221,-120.527962,17.346457,,,,,,,,,,,,,,,,,,,,,,,,,,,,,,,,,,,,,,,,,,,,,,,,,,,,,,,,,,,,,,,,,,,,,,,,,,,,,,,,,,,,,,,,,,,,,,,,,,,,,
1606590780.010234,9.000000,0.000000,4149.871582,4167.051270,4165.256348,4182.692383,4118.846191,4186.666504,4209.102539,4171.538574,4168.461426,4212.820313,4162.692383,4168.461426,4198.717773,4162.820313,3537.000000,4.000000,,,,0.000000,4.000000,4.000000,4.000000,4.000000,4.000000,4.000000,4.000000,4.000000,4.000000,4.000000,4.000000,4.000000,4.000000,4.000000,100.000000,,,,,,,,,,,,,,,,,,,,,,,,,,,,,,,,,,,,,,,,,,,,,,,,,,,,,,,,,,,,,,,,,,,,,,,,,,,,,,,,,,,,,,,,,,,,,,,,,,,,,,,,,,,,,,,,,
1606590780.017932,10.000000,0.000000,4151.025879,4171.282227,4169.230957,4186.922852,4125.000000,4191.666504,4217.563965,4170.128418,4169.615234,4215.769043,4176.922852,4168.589844,4202.179688,4168.846191,3162.000000,4.000000,,,,0.000000,4.000000,4.000000,4.000000,4.000000,4.000000,4.000000,4.000000,4.000000,4.000000,4.000000,4.000000,4.000000,4.000000,4.000000,100.000000,,,,,,,,,,,,,,,,,,,,,,,,,,,,,,,,,,,,,,,,,,,,,,,,,,,,,,,,,,,,,,,,,,,,,,,,,,,,,,,,,,,,,,,,,,,,,,,,,,,,,,,,,,,,,,,,,
1606590780.025531,11.000000,0.000000,4147.051270,4168.333496,4168.333496,4187.692383,4124.743652,4190.641113,4211.410156,4170.000000,4171.538574,4206.794922,4164.358887,4167.692383,4202.179688,4164.615234,3366.000000,4.000000,,,,0.000000,4.000000,4.000000,4.000000,4.000000,4.000000,4.000000,4.000000,4.000000,4.000000,4.000000,4.000000,4.000000,4.000000,4.000000,100.000000,,,,,,,,,,,,,,,,,,,,,,,,,,,,,,,,,,,,,,,,,,,,,,,,,,,,,,,,,,,,,,,,,,,,,,,,,,,,,,,,,,,,,,,,,,,,,,,,,,,,,,,,,,,,,,,,,
1606590780.033229,12.000000,0.000000,4144.487305,4165.897461,4164.487305,4182.820313,4122.051270,4186.666504,4203.846191,4167.307617,4167.179688,4202.563965,4150.512695,4168.974121,4197.692383,4164.358887,3366.000000,4.000000,,,,0.000000,4.000000,4.000000,4.000000,4.000000,4.000000,4.000000,4.000000,4.000000,4.000000,4.000000,4.000000,4.000000,4.000000,4.000000,100.000000,3.000000,0.000000,0.709946,-0.136597,-0.681152,-0.115540,1.008804,-0.130861,-0.059083,-35.141529,-119.032578,18.094149,,,,,,,,,,,,,,,,,,,,,,,,,,,,,,,,,,,,,,,,,,,,,,,,,,,,,,,,,,,,,,,,,,,,,,,,,,,,,,,,,,,,,,,,,,,,,,,,,,,,,
1606590780.040927,13.000000,0.000000,4144.743652,4169.487305,4165.641113,4184.102539,4130.769043,4187.692383,4211.153809,4174.743652,4166.538574,4212.563965,4166.410156,4170.000000,4201.025879,4168.717773,3186.000000,4.000000,,,,0.000000,4.000000,4.000000,4.000000,4.000000,4.000000,4.000000,4.000000,4.000000,4.000000,4.000000,4.000000,4.000000,4.000000,4.000000,100.000000,,,,,,,,,,,,,,,,,,,,,,,,,,,,,,,,,,,,,,,,,,,,,,,,,,,,,,,,,,,,,,,,,,,,,,,,,,,,,,,,,,,,,,,,,,,,,,,,,,,,,,,,,,,,,,,,,
1606590780.048626,14.000000,0.000000,4151.538574,4174.102539,4170.897461,4194.102539,4135.641113,4190.384766,4219.871582,4185.256348,4177.563965,4224.230957,4184.102539,4175.769043,4211.025879,4173.846191,3162.000000,4.000000,,,,0.000000,4.000000,4.000000,4.000000,4.000000,4.000000,4.000000,4.000000,4.000000,4.000000,4.000000,4.000000,4.000000,4.000000,4.000000,100.000000,,,,,,,,,,,,,,,,,,,,,,,,,,,,,,,,,,,,,,,,,,,,3.108037,1.329509,0.695579,0.568410,0.302637,0.693419,0.460528,0.152595,0.306297,0.246067,1.105835,0.709499,0.486663,0.433706,0.264577,0.444110,0.423824,0.145420,0.572437,0.426885,0.560563,0.861444,0.588328,0.718095,0.462759,0.490555,0.552257,0.242542,0.090733,0.108798,0.303530,0.613449,0.207447,0.129951,0.142953,0.526415,0.668805,1.174248,0.200984,0.139055,0.807109,1.872101,1.832538,0.350285,0.245813,2.184149,2.170484,0.816285,0.621707,0.718924,1.881524,1.343206,0.403221,0.626450,0.528726,1.592824,1.393284,0.590131,0.473571,0.740647,2.525430,1.196559,0.470275,0.450097,0.361441,2.241813,0.920854,0.734777,0.575732,0.386926
1606590780.056424,15.000000,0.000000,4159.615234,4174.102539,4176.666504,4195.384766,4122.051270,4187.692383,4219.743652,4186.922852,4188.974121,4232.820313,4186.153809,4184.743652,4213.461426,4183.077148,3366.000000,4.000000,,,,0.000000,4.000000,4.000000,4.000000,4.000000,4.000000,4.000000,4.000000,4.000000,4.000000,4.000000,4.000000,4.000000,4.000000,4.000000,100.000000,,,,,,,,,,,,,,,,,,,,,,,,,,,,,,,,,,,,,,,,,,,,,,,,,,,,,,,,,,,,,,,,,,,,,,,,,,,,,,,,,,,,,,,,,,,,,,,,,,,,,,,,,,,,,,,,,
1606590780.064122,16.000000,0.000000,4158.333496,4171.666504,4177.051270,4187.179688,4112.179688,4185.000000,4219.743652,4188.205078,4189.615234,4237.307617,4183.077148,4186.538574,4211.153809,4187.820313,0.000000,4.000000,,,,0.000000,4.000000,4.000000,4.000000,4.000000,4.000000,4.000000,4.000000,4.000000,4.000000,4.000000,4.000000,4.000000,4.000000,4.000000,100.000000,4.000000,0.000000,0.709940,-0.136169,-0.681213,-0.115723,0.991226,-0.108888,-0.047852,-34.094757,-119.182114,17.196918,,,,,,,,,,,,,,,,,,,,,,,,,,,,,,,,,,,,,,,,,,,,,,,,,,,,,,,,,,,,,,,,,,,,,,,,,,,,,,,,,,,,,,,,,,,,,,,,,,,,,
1606590780.071821,17.000000,0.000000,4154.102539,4171.794922,4174.358887,4187.692383,4108.974121,4186.794922,4222.948730,4187.820313,4183.333496,4231.025879,4177.820313,4187.820313,4209.230957,4183.333496,0.000000,4.000000,,,,0.000000,4.000000,4.000000,4.000000,4.000000,4.000000,4.000000,4.000000,4.000000,4.000000,4.000000,4.000000,4.000000,4.000000,4.000000,100.000000,,,,,,,,,,,,,,,,,,,,,,,,,,,,,,,,,,,,,,,,,,,,,,,,,,,,,,,,,,,,,,,,,,,,,,,,,,,,,,,,,,,,,,,,,,,,,,,,,,,,,,,,,,,,,,,,,
1606590780.079519,18.000000,0.000000,4154.743652,4170.000000,4175.000000,4190.512695,4102.563965,4186.666504,4220.512695,4176.153809,4174.358887,4216.410156,4171.666504,4184.358887,4202.179688,4175.256348,0.000000,4.000000,,,,0.000000,4.000000,4.000000,4.000000,4.000000,4.000000,4.000000,4.000000,4.000000,4.000000,4.000000,4.000000,4.000000,4.000000,4.000000,100.000000,,,,,,,,,,,,,,,,,,,,,,,,,,,,,,,,,,,,,,,,,,,,,,,,,,,,,,,,,,,,,,,,,,,,,,,,,,,,,,,,,,,,,,,,,,,,,,,,,,,,,,,,,,,,,,,,,
1606590780.087317,19.000000,0.000000,4155.512695,4168.717773,4175.384766,4184.743652,4100.641113,4185.512695,4215.128418,4170.384766,4169.615234,4213.717773,4170.128418,4174.487305,4197.948730,4169.358887,0.000000,4.000000,,,,0.000000,4.000000,4.000000,4.000000,4.000000,4.000000,4.000000,4.000000,4.000000,4.000000,4.000000,4.000000,4.000000,4.000000,4.000000,100.000000,,,,,,,,,,,,,,,,,,,,,,,,,,,,,,,,,,,,,,,,,,,,,,,,,,,,,,,,,,,,,,,,,,,,,,,,,,,,,,,,,,,,,,,,,,,,,,,,,,,,,,,,,,,,,,,,,
1606590780.095015,20.000000,0.000000,4153.077148,4169.615234,4170.512695,4182.307617,4104.230957,4184.743652,4215.512695,4178.974121,4171.794922,4224.102539,4169.743652,4170.128418,4200.897461,4169.615234,0.000000,4.000000,,,,0.000000,4.000000,4.000000,4.000000,4.000000,4.000000,4.000000,4.000000,4.000000,4.000000,4.000000,4.000000,4.000000,4.000000,4.000000,100.000000,5.000000,0.000000,0.709926,-0.135986,-0.681274,-0.115662,1.007828,-0.113283,-0.055177,-34.842449,-118.434425,17.944611,,,,,,,,,,,,,,,,,,,,,,,,,,,,,,,,,,,,,,,,,,,,,,,,,,,,,,,,,,,,,,,,,,,,,,,,,,,,,,,,,,,,,,,,,,,,,,,,,,,,,
1606590780.102713,21.000000,0.000000,4153.974121,4168.717773,4171.538574,4185.512695,4105.512695,4185.128418,4222.692383,4183.077148,4174.743652,4222.436035,4169.871582,4171.410156,4201.025879,4173.846191,0.000000,4.000000,,,,0.000000,4.000000,4.000000,4.000000,4.000000,4.000000,4.000000,4.000000,4.000000,4.000000,4.000000,4.000000,4.000000,4.000000,4.000000,100.000000,,,,,,,,,,,,,,,,,,,,,,,,,,,,,,,,,,,,,,,,,,,,,,,,,,,,,,,,,,,,,,,,,,,,,,,,,,,,,,,,,,,,,,,,,,,,,,,,,,,,,,,,,,,,,,,,,
1606590780.110410,22.000000,0.000000,4160.128418,4169.230957,4181.282227,4188.077148,4110.769043,4185.769043,4225.000000,4182.563965,4182.563965,4220.000000,4176.025879,4178.077148,4203.461426,4175.897461,0.000000,4.000000,,,,0.000000,4.000000,4.000000,4.000000,4.000000,4.000000,4.000000,4.000000,4.000000,4.000000,4.000000,4.000000,4.000000,4.000000,4.000000,100.000000,,,,,,,,,,,,,,,,,,,,,,,,,,,,,,,,,,,,,,,,,,,,,,,,,,,,,,,,,,,,,,,,,,,,,,,,,,,,,,,,,,,,,,,,,,,,,,,,,,,,,,,,,,,,,,,,,
1606590780.118208,23.000000,0.000000,4159.487305,4171.666504,4179.615234,4189.358887,4118.974121,4187.307617,4223.589844,4184.871582,4186.794922,4227.307617,4176.794922,4183.846191,4202.051270,4172.436035,0.000000,4.000000,,,,0.000000,4.000000,4.000000,4.000000,4.000000,4.000000,4.000000,4.000000,4.000000,4.000000,4.000000,4.000000,4.000000,4.000000,4.000000,100.000000,,,,,,,,,,,,,,,,,,,,,,,,,,,,,,,,,,,,,,,,,,,,,,,,,,,,,,,,,,,,,,,,,,,,,,,,,,,,,,,,,,,,,,,,,,,,,,,,,,,,,,,,,,,,,,,,,
1606590780.125906,24.000000,0.000000,4151.794922,4171.794922,4167.948730,4186.922852,4120.641113,4189.615234,4224.871582,4184.102539,4181.922852,4225.512695,4171.410156,4172.948730,4194.230957,4165.256348,0.000000,4.000000,,,,0.000000,4.000000,4.000000,4.000000,4.000000,4.000000,4.000000,4.000000,4.000000,4.000000,4.000000,4.000000,4.000000,4.000000,4.000000,100.000000,6.000000,0.000000,0.709869,-0.135620,-0.681396,-0.115723,0.994644,-0.107912,-0.054200,-35.440605,-119.032578,17.346457,,,,,,,,,,,,,,,,,,,,,,,,,,,,,,,,,,,,,,,,,,,,,,,,,,,,,,,,,,,,,,,,,,,,,,,,,,,,,,,,,,,,,,,,,,,,,,,,,,,,,
1606590780.133604,25.000000,0.000000,4153.589844,4172.820313,4167.948730,4187.051270,4119.487305,4189.358887,4228.077148,4183.461426,4185.256348,4224.871582,4179.615234,4168.333496,4203.461426,4171.794922,0.000000,4.000000,,,,0.000000,4.000000,4.000000,4.000000,4.000000,4.000000,4.000000,4.000000,4.000000,4.000000,4.000000,4.000000,4.000000,4.000000,4.000000,100.000000,,,,,,,,,,,,,,,,,,,,,,,,,,,,,,,,,,,,,,,,,,,,,,,,,,,,,,,,,,,,,,,,,,,,,,,,,,,,,,,,,,,,,,,,,,,,,,,,,,,,,,,,,,,,,,,,,
1606590780.141302,26.000000,0.000000,4157.051270,4174.487305,4175.384766,4189.102539,4126.025879,4189.358887,4233.717773,4186.922852,4194.230957,4238.077148,4191.538574,4182.436035,4219.615234,4188.333496,0.000000,4.000000,,,,0.000000,4.000000,4.000000,4.000000,4.000000,4.000000,4.000000,4.000000,4.000000,4.000000,4.000000,4.000000,4.000000,4.000000,4.000000,100.000000,,,,,,,,,,,,,,,,,,,,,,,,,,,,,,,,,,,,,,,,,,,,,,,,,,,,,,,,,,,,,,,,,,,,,,,,,,,,,,,,,,,,,,,,,,,,,,,,,,,,,,,,,,,,,,,,,
1606590780.149000,27.000000,0.000000,4153.205078,4172.436035,4173.589844,4185.641113,4134.230957,4188.846191,4235.128418,4186.666504,4187.820313,4237.692383,4185.897461,4180.256348,4213.846191,4185.256348,0.000000,4.000000,,,,0.000000,4.000000,4.000000,4.000000,4.000000,4.000000,4.000000,4.000000,4.000000,4.000000,4.000000,4.000000,4.000000,4.000000,4.000000,100.000000,,,,,,,,,,,,,,,,,,,,,,,,,,,,,,,,,,,,,,,,,,,,,,,,,,,,,,,,,,,,,,,,,,,,,,,,,,,,,,,,,,,,,,,,,,,,,,,,,,,,,,,,,,,,,,,,,
1606590780.156697,28.000000,0.000000,4154.615234,4171.410156,4167.948730,4183.589844,4131.153809,4188.846191,4232.051270,4182.948730,4176.794922,4222.563965,4178.717773,4173.077148,4203.974121,4172.820313,0.000000,4.000000,,,,0.000000,4.000000,4.000000,4.000000,4.000000,4.000000,4.000000,4.000000,4.000000,4.000000,4.000000,4.000000,4.000000,4.000000,4.000000,100.000000,7.000000,0.000000,0.709890,-0.135254,-0.681458,-0.115662,1.001480,-0.107424,-0.064942,-34.692913,-120.079346,17.346457,,,,,,,,,,,,,,,,,,,,,,,,,,,,,,,,,,,,,,,,,,,,,,,,,,,,,,,,,,,,,,,,,,,,,,,,,,,,,,,,,,,,,,,,,,,,,,,,,,,,,
1606590780.164395,29.000000,0.000000,4158.846191,4172.051270,4168.846191,4186.282227,4126.282227,4188.333496,4232.051270,4183.077148,4181.153809,4221.794922,4185.512695,4181.666504,4206.410156,4174.871582,0.000000,4.000000,,,,0.000000,4.000000,4.000000,4.000000,4.000000,4.000000,4.000000,4.000000,4.000000,4.000000,4.000000,4.000000,4.000000,4.000000,4.000000,100.000000,,,,,,,,,,,,,,,,,,,,,,,,,,,,,,,,,,,,,,,,,,,,,,,,,,,,,,,,,,,,,,,,,,,,,,,,,,,,,,,,,,,,,,,,,,,,,,,,,,,,,,,,,,,,,,,,,
1606590780.172092,30.000000,0.000000,4155.641113,4168.974121,4170.641113,4185.641113,4130.128418,4185.897461,4231.922852,4188.205078,4188.333496,4230.769043,4186.025879,4178.205078,4202.948730,4176.538574,0.000000,4.000000,,,,0.000000,4.000000,4.000000,4.000000,4.000000,4.000000,4.000000,4.000000,4.000000,4.000000,4.000000,4.000000,4.000000,4.000000,4.000000,100.000000,,,,,,,,,,,,,,,,,,,,,,,,,,,,,,,,,,,,,,,,,,,,2.957084,1.364912,0.762383,0.560407,0.288617,0.572436,0.493990,0.133709,0.270795,0.226923,0.921364,0.685396,0.513992,0.407330,0.235733,0.361213,0.476761,0.170395,0.504404,0.364908,0.594603,0.776867,0.572939,0.729716,0.359305,0.417565,0.507984,0.242766,0.092817,0.091745,0.275828,0.722474,0.242370,0.130980,0.132677,0.569515,0.960183,1.382495,0.158171,0.133009,1.050151,2.767777,2.147655,0.299839,0.221157,2.432514,2.828482,0.733036,0.558668,0.629655,1.980795,1.524643,0.417048,0.582784,0.492134,1.562908,1.409672,0.688469,0.400207,0.544649,2.677945,1.363622,0.497479,0.405993,0.321732,2.306689,1.043478,0.819661,0.587542,0.315111
1606590780.179891,31.000000,0.000000,4152.436035,4165.128418,4170.000000,4177.307617,4130.256348,4186.922852,4226.282227,4195.512695,4182.948730,4221.794922,4174.615234,4164.487305,4190.256348,4162.692383,0.000000,4.000000,,,,0.000000,4.000000,4.000000,4.000000,4.000000,4.000000,4.000000,4.000000,4.000000,4.000000,4.000000,4.000000,4.000000,4.000000,4.000000,100.000000,,,,,,,,,,,,,,,,,,,,,,,,,,,,,,,,,,,,,,,,,,,,,,,,,,,,,,,,,,,,,,,,,,,,,,,,,,,,,,,,,,,,,,,,,,,,,,,,,,,,,,,,,,,,,,,,,
1606590780.187789,32.000000,0.000000,4154.230957,4166.794922,4169.871582,4174.615234,4124.102539,4188.205078,4222.692383,4200.897461,4175.384766,4208.461426,4164.358887,4167.179688,4185.128418,4153.846191,0.000000,4.000000,,,,0.000000,4.000000,4.000000,4.000000,4.000000,4.000000,4.000000,4.000000,4.000000,4.000000,4.000000,4.000000,4.000000,4.000000,4.000000,100.000000,8.000000,0.000000,0.709857,-0.134766,-0.681641,-0.115356,0.991226,-0.106447,-0.054688,-35.889221,-119.331657,17.047379,,,,,,,,,,,,,,,,,,,,,,,,,,,,,,,,,,,,,,,,,,,,,,,,,,,,,,,,,,,,,,,,,,,,,,,,,,,,,,,,,,,,,,,,,,,,,,,,,,,,,
1606590780.195488,33.000000,0.000000,4160.769043,4170.256348,4172.948730,4181.666504,4128.589844,4185.897461,4224.358887,4201.666504,4179.743652,4217.307617,4164.615234,4174.615234,4190.512695,4161.922852,0.000000,4.000000,,,,0.000000,4.000000,4.000000,4.000000,4.000000,4.000000,4.000000,4.000000,4.000000,4.000000,4.000000,4.000000,4.000000,4.000000,4.000000,100.000000,,,,,,,,,,,,,,,,,,,,,,,,,,,,,,,,,,,,,,,,,,,,,,,,,,,,,,,,,,,,,,,,,,,,,,,,,,,,,,,,,,,,,,,,,,,,,,,,,,,,,,,,,,,,,,,,,
1606590780.203185,34.000000,0.000000,4168.333496,4169.743652,4174.615234,4183.461426,4134.871582,4188.589844,4227.820313,4201.666504,4183.077148,4224.358887,4171.282227,4171.282227,4194.102539,4165.512695,0.000000,4.000000,,,,0.000000,4.000000,4.000000,4.000000,4.000000,4.000000,4.000000,4.000000,4.000000,4.000000,4.000000,4.000000,4.000000,4.000000,4.000000,100.000000,,,,,,,,,,,,,,,,,,,,,,,,,,,,,,,,,,,,,,,,,,,,,,,,,,,,,,,,,,,,,,,,,,,,,,,,,,,,,,,,,,,,,,,,,,,,,,,,,,,,,,,,,,,,,,,,,
1606590780.210783,35.000000,0.000000,4169.358887,4167.051270,4173.077148,4178.846191,4131.794922,4194.230957,4227.692383,4201.666504,4179.615234,4214.871582,4171.410156,4168.717773,4187.820313,4161.025879,0.000000,4.000000,,,,0.000000,4.000000,4.000000,4.000000,4.000000,4.000000,4.000000,4.000000,4.000000,4.000000,4.000000,4.000000,4.000000,4.000000,4.000000,100.000000,,,,,,,,,,,,,,,,,,,,,,,,,,,,,,,,,,,,,,,,,,,,,,,,,,,,,,,,,,,,,,,,,,,,,,,,,,,,,,,,,,,,,,,,,,,,,,,,,,,,,,,,,,,,,,,,,
1606590780.218480,36.000000,0.000000,4166.922852,4169.102539,4172.692383,4177.820313,4129.102539,4190.256348,4223.974121,4199.102539,4177.563965,4210.384766,4168.077148,4171.282227,4185.512695,4164.102539,0.000000,4.000000,,,,0.000000,4.000000,4.000000,4.000000,4.000000,4.000000,4.000000,4.000000,4.000000,4.000000,4.000000,4.000000,4.000000,4.000000,4.000000,100.000000,9.000000,0.000000,0.709778,-0.134460,-0.681763,-0.115479,1.010269,-0.114748,-0.053223,-36.487373,-118.434425,17.495995,,,,,,,,,,,,,,,,,,,,,,,,,,,,,,,,,,,,,,,,,,,,,,,,,,,,,,,,,,,,,,,,,,,,,,,,,,,,,,,,,,,,,,,,,,,,,,,,,,,,,
1606590780.226177,37.000000,0.000000,4170.128418,4174.615234,4174.743652,4183.333496,4132.179688,4183.589844,4223.717773,4199.743652,4175.512695,4216.538574,4173.077148,4176.153809,4196.410156,4171.794922,0.000000,4.000000,,,,0.000000,4.000000,4.000000,4.000000,4.000000,4.000000,4.000000,4.000000,4.000000,4.000000,4.000000,4.000000,4.000000,4.000000,4.000000,100.000000,,,,,,,,,,,,,,,,,,,,,,,,,,,,,,,,,,,,,,,,,,,,,,,,,,,,,,,,,,,,,,,,,,,,,,,,,,,,,,,,,,,,,,,,,,,,,,,,,,,,,,,,,,,,,,,,,
1606590780.233874,38.000000,0.000000,4171.282227,4171.922852,4172.179688,4182.820313,4130.512695,4184.102539,4223.717773,4197.692383,4170.897461,4219.615234,4178.461426,4171.282227,4200.641113,4170.512695,0.000000,4.000000,,,,0.000000,4.000000,4.000000,4.000000,4.000000,4.000000,4.000000,4.000000,4.000000,4.000000,4.000000,4.000000,4.000000,4.000000,4.000000,100.000000,,,,,,,,,,,,,,,,,,,,,,,,,,,,,,,,,,,,,,,,,,,,,,,,,,,,,,,,,,,,,,,,,,,,,,,,,,,,,,,,,,,,,,,,,,,,,,,,,,,,,,,,,,,,,,,,,
1606590780.241472,39.000000,0.000000,4170.897461,4168.717773,4172.436035,4179.358887,4129.230957,4184.358887,4215.000000,4189.230957,4168.846191,4210.897461,4173.717773,4167.051270,4194.615234,4165.769043,0.000000,4.000000,,,,0.000000,4.000000,4.000000,4.000000,4.000000,4.000000,4.000000,4.000000,4.000000,4.000000,4.000000,4.000000,4.000000,4.000000,4.000000,100.000000,,,,,,,,,,,,,,,,,,,,,,,,,,,,,,,,,,,,,,,,,,,,,,,,,,,,,,,,,,,,,,,,,,,,,,,,,,,,,,,,,,,,,,,,,,,,,,,,,,,,,,,,,,,,,,,,,
1606590780.249169,40.000000,0.000000,4175.512695,4176.410156,4179.871582,4185.769043,4135.000000,4183.589844,4211.025879,4185.897461,4169.102539,4204.230957,4169.102539,4175.641113,4194.102539,4168.974121,0.000000,4.000000,,,,0.000000,4.000000,4.000000,4.000000,4.000000,4.000000,4.000000,4.000000,4.000000,4.000000,4.000000,4.000000,4.000000,4.000000,4.000000,100.000000,10.000000,0.000000,0.709753,-0.133972,-0.681885,-0.115479,1.015152,-0.114260,-0.052247,-35.440605,-119.032578,17.795071,,,,,,,,,,,,,,,,,,,,,,,,,,,,,,,,,,,,,,,,,,,,,,,,,,,,,,,,,,,,,,,,,,,,,,,,,,,,,,,,,,,,,,,,,,,,,,,,,,,,,
1606590780.256866,41.000000,0.000000,4177.820313,4179.230957,4178.717773,4188.461426,4133.333496,4183.461426,4216.282227,4189.615234,4170.384766,4213.333496,4173.974121,4178.461426,4192.820313,4171.282227,0.000000,4.000000,,,,0.000000,4.000000,4.000000,4.000000,4.000000,4.000000,4.000000,4.000000,4.000000,4.000000,4.000000,4.000000,4.000000,4.000000,4.000000,100.000000,,,,,,,,,,,,,,,,,,,,,,,,,,,,,,,,,,,,,,,,,,,,,,,,,,,,,,,,,,,,,,,,,,,,,,,,,,,,,,,,,,,,,,,,,,,,,,,,,,,,,,,,,,,,,,,,,
1606590780.264564,42.000000,0.000000,4168.589844,4169.102539,4168.205078,4175.256348,4131.282227,4184.487305,4214.102539,4187.563965,4172.436035,4221.794922,4173.589844,4168.461426,4184.615234,4164.230957,0.000000,4.000000,,,,0.000000,4.000000,4.000000,4.000000,4.000000,4.000000,4.000000,4.000000,4.000000,4.000000,4.000000,4.000000,4.000000,4.000000,4.000000,100.000000,,,,,,,,,,,,,,,,,,,,,,,,,,,,,,,,,,,,,,,,,,,,,,,,,,,,,,,,,,,,,,,,,,,,,,,,,,,,,,,,,,,,,,,,,,,,,,,,,,,,,,,,,,,,,,,,,
1606590780.272363,43.000000,0.000000,4159.102539,4163.589844,4163.077148,4165.641113,4135.512695,4186.410156,4209.743652,4183.717773,4169.487305,4213.589844,4169.358887,4162.692383,4181.410156,4156.794922,0.000000,4.000000,,,,0.000000,4.000000,4.000000,4.000000,4.000000,4.000000,4.000000,4.000000,4.000000,4.000000,4.000000,4.000000,4.000000,4.000000,4.000000,100.000000,,,,,,,,,,,,,,,,,,,,,,,,,,,,,,,,,,,,,,,,,,,,,,,,,,,,,,,,,,,,,,,,,,,,,,,,,,,,,,,,,,,,,,,,,,,,,,,,,,,,,,,,,,,,,,,,,
1606590780.280061,44.000000,0.000000,4162.563965,4169.102539,4169.871582,4172.051270,4129.871582,4185.512695,4217.948730,4192.692383,4173.717773,4215.384766,4174.358887,4174.230957,4193.077148,4163.077148,0.000000,4.000000,,,,0.000000,4.000000,4.000000,4.000000,4.000000,4.000000,4.000000,4.000000,4.000000,4.000000,4.000000,4.000000,4.000000,4.000000,4.000000,100.000000,11.000000,0.000000,0.709702,-0.133362,-0.682068,-0.115417,1.001480,-0.107424,-0.057130,-34.842449,-119.481194,17.495995,,,,,,,,,,,,,,,,,,,,,,,,,,,,,,,,,,,,,,,,,,,,,,,,,,,,,,,,,,,,,,,,,,,,,,,,,,,,,,,,,,,,,,,,,,,,,,,,,,,,,
1606590780.287759,45.000000,0.000000,4174.358887,4172.051270,4179.743652,4176.666504,4119.615234,4185.000000,4229.615234,4204.358887,4187.820313,4224.615234,4177.307617,4187.563965,4204.615234,4176.153809,0.000000,4.000000,,,,0.000000,4.000000,4.000000,4.000000,4.000000,4.000000,4.000000,4.000000,4.000000,4.000000,4.000000,4.000000,4.000000,4.000000,4.000000,100.000000,,,,,,,,,,,,,,,,,,,,,,,,,,,,,,,,,,,,,,,,,,,,,,,,,,,,,,,,,,,,,,,,,,,,,,,,,,,,,,,,,,,,,,,,,,,,,,,,,,,,,,,,,,,,,,,,,
1606590780.295456,46.000000,0.000000,4179.358887,4170.897461,4184.743652,4175.897461,4122.563965,4187.692383,4225.897461,4203.974121,4187.563965,4224.743652,4177.563965,4187.820313,4200.000000,4181.025879,0.000000,4.000000,,,,0.000000,4.000000,4.000000,4.000000,4.000000,4.000000,4.000000,4.000000,4.000000,4.000000,4.000000,4.000000,4.000000,4.000000,4.000000,100.000000,,,,,,,,,,,,,,,,,,,,,,,,,,,,,,,,,,,,,,,,,,,,2.599987,1.417146,0.802091,0.512910,0.271214,0.441838,0.513881,0.132444,0.229807,0.199567,0.794951,0.702830,0.561258,0.370215,0.203041,0.312491,0.560816,0.215313,0.420465,0.297790,0.666134,0.743693,0.557653,0.690740,0.281714,0.371915,0.469386,0.225238,0.092811,0.078651,0.277520,0.820797,0.261049,0.127167,0.119716,0.613618,1.284960,1.443432,0.125949,0.128529,1.323360,3.682783,2.278192,0.263341,0.202372,2.647986,3.383768,0.654669,0.507885,0.529615,1.994764,1.613726,0.477407,0.536471,0.446682,1.489562,1.397176,0.769433,0.343369,0.399876,2.674587,1.430901,0.544905,0.358432,0.286927,2.257320,1.153960,0.912248,0.583926,0.253235
1606590780.303055,47.000000,0.000000,4174.487305,4169.871582,4182.692383,4175.897461,4120.512695,4187.563965,4214.871582,4195.128418,4172.692383,4222.051270,4180.000000,4182.051270,4187.820313,4176.282227,0.000000,4.000000,,,,0.000000,4.000000,4.000000,4.000000,4.000000,4.000000,4.000000,4.000000,4.000000,4.000000,4.000000,4.000000,4.000000,4.000000,4.000000,100.000000,,,,,,,,,,,,,,,,,,,,,,,,,,,,,,,,,,,,,,,,,,,,,,,,,,,,,,,,,,,,,,,,,,,,,,,,,,,,,,,,,,,,,,,,,,,,,,,,,,,,,,,,,,,,,,,,,
1606590780.310752,48.000000,0.000000,4175.641113,4169.102539,4180.512695,4177.563965,4105.256348,4183.461426,4212.307617,4193.589844,4170.641113,4217.179688,4180.769043,4184.358887,4191.794922,4174.102539,0.000000,4.000000,,,,0.000000,4.000000,4.000000,4.000000,4.000000,4.000000,4.000000,4.000000,4.000000,4.000000,4.000000,4.000000,4.000000,4.000000,4.000000,100.000000,12.000000,0.000000,0.709640,-0.133118,-0.682190,-0.115356,0.995132,-0.102541,-0.055665,-34.543373,-119.929810,17.944611,,,,,,,,,,,,,,,,,,,,,,,,,,,,,,,,,,,,,,,,,,,,,,,,,,,,,,,,,,,,,,,,,,,,,,,,,,,,,,,,,,,,,,,,,,,,,,,,,,,,,
1606590780.318450,49.000000,0.000000,4184.102539,4176.282227,4184.358887,4182.948730,4104.615234,4181.282227,4216.025879,4193.717773,4178.205078,4214.102539,4179.871582,4188.461426,4198.717773,4181.025879,0.000000,4.000000,,,,0.000000,4.000000,4.000000,4.000000,4.000000,4.000000,4.000000,4.000000,4.000000,4.000000,4.000000,4.000000,4.000000,4.000000,4.000000,100.000000,,,,,,,,,,,,,,,,,,,,,,,,,,,,,,,,,,,,,,,,,,,,,,,,,,,,,,,,,,,,,,,,,,,,,,,,,,,,,,,,,,,,,,,,,,,,,,,,,,,,,,,,,,,,,,,,,
1606590780.326148,50.000000,0.000000,4188.589844,4185.256348,4187.051270,4187.436035,4116.025879,4180.897461,4215.384766,4192.179688,4176.282227,4219.487305,4180.256348,4183.461426,4195.000000,4187.307617,0.000000,4.000000,,,,0.000000,4.000000,4.000000,4.000000,4.000000,4.000000,4.000000,4.000000,4.000000,4.000000,4.000000,4.000000,4.000000,4.000000,4.000000,100.000000,,,,,,,,,,,,,,,,,,,,,,,,,,,,,,,,,,,,,,,,,,,,,,,,,,,,,,,,,,,,,,,,,,,,,,,,,,,,,,,,,,,,,,,,,,,,,,,,,,,,,,,,,,,,,,,,,
1606590780.333946,51.000000,0.000000,4185.897461,4178.974121,4185.641113,4181.666504,4115.641113,4181.410156,4212.563965,4193.717773,4172.051270,4223.717773,4184.230957,4183.077148,4196.025879,4183.717773,0.000000,4.000000,,,,0.000000,4.000000,4.000000,4.000000,4.000000,4.000000,4.000000,4.000000,4.000000,4.000000,4.000000,4.000000,4.000000,4.000000,4.000000,100.000000,,,,,,,,,,,,,,,,,,,,,,,,,,,,,,,,,,,,,,,,,,,,,,,,,,,,,,,,,,,,,,,,,,,,,,,,,,,,,,,,,,,,,,,,,,,,,,,,,,,,,,,,,,,,,,,,,
1606590780.341644,52.000000,0.000000,4182.820313,4167.179688,4184.358887,4177.563965,4112.436035,4183.461426,4209.102539,4191.153809,4168.846191,4218.077148,4187.179688,4186.282227,4200.384766,4182.307617,0.000000,4.000000,,,,0.000000,4.000000,4.000000,4.000000,4.000000,4.000000,4.000000,4.000000,4.000000,4.000000,4.000000,4.000000,4.000000,4.000000,4.000000,100.000000,13.000000,0.000000,0.709645,-0.132935,-0.682190,-0.115540,0.998062,-0.108400,-0.053712,-34.094757,-119.182114,19.140917,,,,,,,,,,,,,,,,,,,,,,,,,,,,,,,,,,,,,,,,,,,,,,,,,,,,,,,,,,,,,,,,,,,,,,,,,,,,,,,,,,,,,,,,,,,,,,,,,,,,,
1606590780.349341,53.000000,0.000000,4185.256348,4175.384766,4185.897461,4183.589844,4117.820313,4184.230957,4208.974121,4192.179688,4169.871582,4212.820313,4181.153809,4185.128418,4197.307617,4184.615234,0.000000,4.000000,,,,0.000000,4.000000,4.000000,4.000000,4.000000,4.000000,4.000000,4.000000,4.000000,4.000000,4.000000,4.000000,4.000000,4.000000,4.000000,100.000000,,,,,,,,,,,,,,,,,,,,,,,,,,,,,,,,,,,,,,,,,,,,,,,,,,,,,,,,,,,,,,,,,,,,,,,,,,,,,,,,,,,,,,,,,,,,,,,,,,,,,,,,,,,,,,,,,
1606590780.357039,54.000000,0.000000,4187.692383,4185.128418,4184.871582,4187.692383,4127.307617,4184.487305,4215.384766,4197.820313,4177.692383,4218.205078,4175.897461,4184.230957,4197.051270,4183.974121,0.000000,4.000000,,,,0.000000,4.000000,4.000000,4.000000,4.000000,4.000000,4.000000,4.000000,4.000000,4.000000,4.000000,4.000000,4.000000,4.000000,4.000000,100.000000,,,,,,,,,,,,,,,,,,,,,,,,,,,,,,,,,,,,,,,,,,,,,,,,,,,,,,,,,,,,,,,,,,,,,,,,,,,,,,,,,,,,,,,,,,,,,,,,,,,,,,,,,,,,,,,,,
1606590780.364836,55.000000,0.000000,4187.436035,4174.615234,4184.230957,4184.743652,4131.794922,4183.974121,4217.692383,4195.384766,4175.769043,4223.077148,4183.077148,4186.538574,4198.974121,4188.974121,0.000000,4.000000,,,,0.000000,4.000000,4.000000,4.000000,4.000000,4.000000,4.000000,4.000000,4.000000,4.000000,4.000000,4.000000,4.000000,4.000000,4.000000,100.000000,,,,,,,,,,,,,,,,,,,,,,,,,,,,,,,,,,,,,,,,,,,,,,,,,,,,,,,,,,,,,,,,,,,,,,,,,,,,,,,,,,,,,,,,,,,,,,,,,,,,,,,,,,,,,,,,,
1606590780.372534,56.000000,0.000000,4184.102539,4168.974121,4181.538574,4182.307617,4126.922852,4184.615234,4211.794922,4187.051270,4170.128418,4218.205078,4184.743652,4186.410156,4196.025879,4192.820313,0.000000,4.000000,,,,0.000000,4.000000,4.000000,4.000000,4.000000,4.000000,4.000000,4.000000,4.000000,4.000000,4.000000,4.000000,4.000000,4.000000,4.000000,100.000000,14.000000,0.000000,0.709600,-0.132446,-0.682373,-0.115295,1.002457,-0.117678,-0.046387,-35.440605,-118.284889,17.346457,,,,,,,,,,,,,,,,,,,,,,,,,,,,,,,,,,,,,,,,,,,,,,,,,,,,,,,,,,,,,,,,,,,,,,,,,,,,,,,,,,,,,,,,,,,,,,,,,,,,,
1606590780.380231,57.000000,0.000000,4184.743652,4175.769043,4175.000000,4182.179688,4119.102539,4185.769043,4210.769043,4188.974121,4180.512695,4218.333496,4183.077148,4183.589844,4194.871582,4187.051270,0.000000,4.000000,,,,0.000000,4.000000,4.000000,4.000000,4.000000,4.000000,4.000000,4.000000,4.000000,4.000000,4.000000,4.000000,4.000000,4.000000,4.000000,100.000000,,,,,,,,,,,,,,,,,,,,,,,,,,,,,,,,,,,,,,,,,,,,,,,,,,,,,,,,,,,,,,,,,,,,,,,,,,,,,,,,,,,,,,,,,,,,,,,,,,,,,,,,,,,,,,,,,
1606590780.387929,58.000000,0.000000,4185.641113,4175.000000,4174.743652,4179.615234,4126.153809,4184.615234,4207.948730,4188.589844,4181.025879,4221.538574,4185.641113,4177.820313,4192.051270,4180.384766,0.000000,4.000000,,,,0.000000,4.000000,4.000000,4.000000,4.000000,4.000000,4.000000,4.000000,4.000000,4.000000,4.000000,4.000000,4.000000,4.000000,4.000000,100.000000,,,,,,,,,,,,,,,,,,,,,,,,,,,,,,,,,,,,,,,,,,,,,,,,,,,,,,,,,,,,,,,,,,,,,,,,,,,,,,,,,,,,,,,,,,,,,,,,,,,,,,,,,,,,,,,,,
1606590780.395727,59.000000,0.000000,4183.974121,4170.256348,4181.282227,4180.769043,4138.974121,4186.025879,4200.384766,4179.487305,4162.948730,4213.717773,4181.794922,4170.000000,4186.922852,4180.256348,0.000000,4.000000,,,,0.000000,4.000000,4.000000,4.000000,4.000000,4.000000,4.000000,4.000000,4.000000,4.000000,4.000000,4.000000,4.000000,4.000000,4.000000,100.000000,,,,,,,,,,,,,,,,,,,,,,,,,,,,,,,,,,,,,,,,,,,,,,,,,,,,,,,,,,,,,,,,,,,,,,,,,,,,,,,,,,,,,,,,,,,,,,,,,,,,,,,,,,,,,,,,,
1606590780.403625,60.000000,0.000000,4191.153809,4174.358887,4185.128418,4186.025879,4131.282227,4187.436035,4206.410156,4184.230957,4163.461426,4212.563965,4180.897461,4177.563965,4194.871582,4185.000000,0.000000,4.000000,,,,0.000000,4.000000,4.000000,4.000000,4.000000,4.000000,4.000000,4.000000,4.000000,4.000000,4.000000,4.000000,4.000000,4.000000,4.000000,100.000000,15.000000,0.000000,0.709536,-0.132263,-0.682495,-0.115173,1.007340,-0.105959,-0.050782,-35.889221,-119.032578,18.094149,,,,,,,,,,,,,,,,,,,,,,,,,,,,,,,,,,,,,,,,,,,,,,,,,,,,,,,,,,,,,,,,,,,,,,,,,,,,,,,,,,,,,,,,,,,,,,,,,,,,,
1606590780.411522,61.000000,0.000000,4200.897461,4177.436035,4185.256348,4186.025879,4126.153809,4188.589844,4221.410156,4197.820313,4182.948730,4223.846191,4191.153809,4187.820313,4201.025879,4186.794922,0.000000,4.000000,,,,0.000000,4.000000,4.000000,4.000000,4.000000,4.000000,4.000000,4.000000,4.000000,4.000000,4.000000,4.000000,4.000000,4.000000,4.000000,100.000000,,,,,,,,,,,,,,,,,,,,,,,,,,,,,,,,,,,,,,,,,,,,,,,,,,,,,,,,,,,,,,,,,,,,,,,,,,,,,,,,,,,,,,,,,,,,,,,,,,,,,,,,,,,,,,,,,
1606590780.419220,62.000000,0.000000,4195.769043,4171.794922,4183.974121,4179.743652,4141.153809,4196.666504,4223.717773,4204.102539,4189.102539,4222.692383,4190.384766,4177.307617,4189.358887,4179.487305,0.000000,4.000000,,,,0.000000,4.000000,4.000000,4.000000,4.000000,4.000000,4.000000,4.000000,4.000000,4.000000,4.000000,4.000000,4.000000,4.000000,4.000000,100.000000,,,,,,,,,,,,,,,,,,,,,,,,,,,,,,,,,,,,,,,,,,,,2.134594,1.489624,0.797621,0.440447,0.249377,0.321567,0.511111,0.141777,0.187808,0.167718,0.760678,0.763652,0.616001,0.332548,0.172250,0.328624,0.649253,0.258582,0.334978,0.236571,0.819280,0.795829,0.531418,0.603601,0.230553,0.350943,0.430744,0.194371,0.088899,0.067977,0.307155,0.865194,0.259034,0.117950,0.107741,0.664341,1.529524,1.347147,0.107551,0.125978,1.571708,4.309573,2.177000,0.249435,0.190367,2.815611,3.678690,0.614171,0.465931,0.435799,1.949026,1.604782,0.569410,0.495618,0.402813,1.402907,1.365264,0.823568,0.298537,0.310689,2.557722,1.387565,0.601051,0.314936,0.257812,2.097723,1.241836,0.993715,0.561308,0.208500
1606590780.426817,63.000000,0.000000,4185.128418,4167.563965,4183.333496,4177.051270,4145.128418,4199.615234,4219.230957,4201.538574,4183.589844,4218.717773,4180.000000,4172.307617,4186.922852,4176.538574,0.000000,4.000000,,,,0.000000,4.000000,4.000000,4.000000,4.000000,4.000000,4.000000,4.000000,4.000000,4.000000,4.000000,4.000000,4.000000,4.000000,4.000000,100.000000,,,,,,,,,,,,,,,,,,,,,,,,,,,,,,,,,,,,,,,,,,,,,,,,,,,,,,,,,,,,,,,,,,,,,,,,,,,,,,,,,,,,,,,,,,,,,,,,,,,,,,,,,,,,,,,,,
1606590780.434514,64.000000,0.000000,4188.846191,4170.000000,4187.436035,4179.102539,4126.922852,4188.461426,4224.615234,4202.563965,4185.769043,4229.871582,4182.820313,4185.000000,4198.717773,4183.974121,3322.000000,4.000000,,,,0.000000,4.000000,4.000000,4.000000,4.000000,4.000000,4.000000,4.000000,4.000000,4.000000,4.000000,4.000000,4.000000,4.000000,4.000000,100.000000,16.000000,0.000000,0.709466,-0.132324,-0.682556,-0.115173,0.997574,-0.106935,-0.052735,-35.291065,-118.733498,19.140917,,,,,,,,,,,,,,,,,,,,,,,,,,,,,,,,,,,,,,,,,,,,,,,,,,,,,,,,,,,,,,,,,,,,,,,,,,,,,,,,,,,,,,,,,,,,,,,,,,,,,
1606590780.442213,65.000000,0.000000,4193.077148,4170.897461,4188.333496,4175.000000,4120.769043,4182.692383,4227.051270,4206.538574,4195.384766,4236.794922,4188.717773,4189.102539,4195.512695,4185.897461,3483.000000,4.000000,,,,0.000000,4.000000,4.000000,4.000000,4.000000,4.000000,4.000000,4.000000,4.000000,4.000000,4.000000,4.000000,4.000000,4.000000,4.000000,100.000000,,,,,,,,,,,,,,,,,,,,,,,,,,,,,,,,,,,,,,,,,,,,,,,,,,,,,,,,,,,,,,,,,,,,,,,,,,,,,,,,,,,,,,,,,,,,,,,,,,,,,,,,,,,,,,,,,
1606590780.449911,66.000000,0.000000,4184.743652,4167.051270,4183.077148,4168.333496,4136.153809,4189.871582,4219.743652,4205.384766,4193.974121,4226.538574,4184.358887,4186.025879,4184.615234,4183.077148,3512.000000,4.000000,,,,0.000000,4.000000,4.000000,4.000000,4.000000,4.000000,4.000000,4.000000,4.000000,4.000000,4.000000,4.000000,4.000000,4.000000,4.000000,100.000000,,,,,,,,,,,,,,,,,,,,,,,,,,,,,,,,,,,,,,,,,,,,,,,,,,,,,,,,,,,,,,,,,,,,,,,,,,,,,,,,,,,,,,,,,,,,,,,,,,,,,,,,,,,,,,,,,
1606590780.457910,67.000000,0.000000,4181.410156,4166.794922,4182.179688,4174.102539,4142.179688,4191.025879,4214.743652,4201.410156,4184.743652,4222.051270,4186.282227,4188.461426,4188.589844,4187.692383,2971.000000,4.000000,,,,0.000000,4.000000,4.000000,4.000000,4.000000,4.000000,4.000000,4.000000,4.000000,4.000000,4.000000,4.000000,4.000000,4.000000,4.000000,100.000000,,,,,,,,,,,,,,,,,,,,,,,,,,,,,,,,,,,,,,,,,,,,,,,,,,,,,,,,,,,,,,,,,,,,,,,,,,,,,,,,,,,,,,,,,,,,,,,,,,,,,,,,,,,,,,,,,
1606590780.465809,68.000000,0.000000,4183.974121,4168.846191,4183.077148,4180.512695,4130.641113,4183.846191,4215.000000,4199.743652,4184.230957,4226.282227,4190.897461,4187.692383,4192.436035,4185.512695,3586.000000,4.000000,,,,0.000000,4.000000,4.000000,4.000000,4.000000,4.000000,4.000000,4.000000,4.000000,4.000000,4.000000,4.000000,4.000000,4.000000,4.000000,100.000000,17.000000,0.000000,0.709515,-0.132324,-0.682495,-0.115234,0.994156,-0.121096,-0.053712,-35.440605,-117.387657,17.346457,,,,,,,,,,,,,,,,,,,,,,,,,,,,,,,,,,,,,,,,,,,,,,,,,,,,,,,,,,,,,,,,,,,,,,,,,,,,,,,,,,,,,,,,,,,,,,,,,,,,,
1606590780.473708,69.000000,0.000000,4185.512695,4169.743652,4183.717773,4179.615234,4132.820313,4185.128418,4215.384766,4198.333496,4188.205078,4222.692383,4186.153809,4187.051270,4184.230957,4178.846191,3039.000000,4.000000,,,,0.000000,4.000000,4.000000,4.000000,4.000000,4.000000,4.000000,4.000000,4.000000,4.000000,4.000000,4.000000,4.000000,4.000000,4.000000,100.000000,,,,,,,,,,,,,,,,,,,,,,,,,,,,,,,,,,,,,,,,,,,,,,,,,,,,,,,,,,,,,,,,,,,,,,,,,,,,,,,,,,,,,,,,,,,,,,,,,,,,,,,,,,,,,,,,,
1606590780.481607,70.000000,0.000000,4188.846191,4172.307617,4185.384766,4184.871582,4153.205078,4194.230957,4213.717773,4190.512695,4181.282227,4215.000000,4184.743652,4184.743652,4181.666504,4179.487305,2807.000000,4.000000,,,,0.000000,4.000000,4.000000,4.000000,4.000000,4.000000,4.000000,4.000000,4.000000,4.000000,4.000000,4.000000,4.000000,4.000000,4.000000,100.000000,,,,,,,,,,,,,,,,,,,,,,,,,,,,,,,,,,,,,,,,,,,,,,,,,,,,,,,,,,,,,,,,,,,,,,,,,,,,,,,,,,,,,,,,,,,,,,,,,,,,,,,,,,,,,,,,,
1606590780.489404,71.000000,0.000000,4195.256348,4172.820313,4186.025879,4191.410156,4159.615234,4200.128418,4213.461426,4183.717773,4171.282227,4211.666504,4184.358887,4174.358887,4186.922852,4176.282227,2799.000000,4.000000,,,,0.000000,4.000000,4.000000,4.000000,4.000000,4.000000,4.000000,4.000000,4.000000,4.000000,4.000000,4.000000,4.000000,4.000000,4.000000,100.000000,,,,,,,,,,,,,,,,,,,,,,,,,,,,,,,,,,,,,,,,,,,,,,,,,,,,,,,,,,,,,,,,,,,,,,,,,,,,,,,,,,,,,,,,,,,,,,,,,,,,,,,,,,,,,,,,,
1606590780.497102,72.000000,0.000000,4196.666504,4175.512695,4184.615234,4188.333496,4152.563965,4200.897461,4214.230957,4189.102539,4174.743652,4213.846191,4180.128418,4176.794922,4188.846191,4174.102539,3374.000000,4.000000,,,,0.000000,4.000000,4.000000,4.000000,4.000000,4.000000,4.000000,4.000000,4.000000,4.000000,4.000000,4.000000,4.000000,4.000000,4.000000,100.000000,18.000000,0.000000,0.709576,-0.132629,-0.682373,-0.115234,0.998062,-0.108888,-0.051759,-35.440605,-119.780273,17.795071,,,,,,,,,,,,,,,,,,,,,,,,,,,,,,,,,,,,,,,,,,,,,,,,,,,,,,,,,,,,,,,,,,,,,,,,,,,,,,,,,,,,,,,,,,,,,,,,,,,,,
1606590780.504800,73.000000,0.000000,4193.333496,4180.256348,4184.743652,4185.000000,4154.230957,4195.000000,4216.922852,4198.205078,4183.333496,4218.846191,4185.384766,4188.077148,4188.974121,4180.897461,3541.000000,4.000000,,,,0.000000,4.000000,4.000000,4.000000,4.000000,4.000000,4.000000,4.000000,4.000000,4.000000,4.000000,4.000000,4.000000,4.000000,4.000000,100.000000,,,,,,,,,,,,,,,,,,,,,,,,,,,,,,,,,,,,,,,,,,,,,,,,,,,,,,,,,,,,,,,,,,,,,,,,,,,,,,,,,,,,,,,,,,,,,,,,,,,,,,,,,,,,,,,,,
1606590780.512497,74.000000,0.000000,4192.436035,4178.077148,4185.384766,4188.589844,4156.153809,4191.538574,4220.128418,4200.641113,4185.000000,4222.307617,4189.487305,4187.051270,4191.922852,4185.897461,3177.000000,4.000000,,,,0.000000,4.000000,4.000000,4.000000,4.000000,4.000000,4.000000,4.000000,4.000000,4.000000,4.000000,4.000000,4.000000,4.000000,4.000000,100.000000,,,,,,,,,,,,,,,,,,,,,,,,,,,,,,,,,,,,,,,,,,,,,,,,,,,,,,,,,,,,,,,,,,,,,,,,,,,,,,,,,,,,,,,,,,,,,,,,,,,,,,,,,,,,,,,,,
1606590780.520093,75.000000,0.000000,4191.538574,4170.769043,4183.974121,4188.333496,4149.615234,4194.487305,4222.436035,4199.743652,4185.641113,4219.743652,4180.512695,4183.205078,4191.922852,4185.512695,3378.000000,4.000000,,,,0.000000,4.000000,4.000000,4.000000,4.000000,4.000000,4.000000,4.000000,4.000000,4.000000,4.000000,4.000000,4.000000,4.000000,4.000000,100.000000,,,,,,,,,,,,,,,,,,,,,,,,,,,,,,,,,,,,,,,,,,,,,,,,,,,,,,,,,,,,,,,,,,,,,,,,,,,,,,,,,,,,,,,,,,,,,,,,,,,,,,,,,,,,,,,,,
1606590780.527791,76.000000,0.000000,4186.282227,4167.051270,4184.615234,4179.615234,4146.666504,4193.077148,4220.769043,4199.743652,4186.794922,4216.410156,4172.563965,4183.333496,4182.436035,4180.641113,3370.000000,4.000000,,,,0.000000,4.000000,4.000000,4.000000,4.000000,4.000000,4.000000,4.000000,4.000000,4.000000,4.000000,4.000000,4.000000,4.000000,4.000000,100.000000,19.000000,0.000000,0.709608,-0.133240,-0.682190,-0.115417,1.019547,-0.118166,-0.047364,-35.440605,-118.583961,18.542763,,,,,,,,,,,,,,,,,,,,,,,,,,,,,,,,,,,,,,,,,,,,,,,,,,,,,,,,,,,,,,,,,,,,,,,,,,,,,,,,,,,,,,,,,,,,,,,,,,,,,
1606590780.535490,77.000000,0.000000,4181.922852,4166.794922,4181.922852,4174.102539,4147.179688,4188.846191,4217.820313,4201.538574,4184.358887,4215.897461,4173.589844,4178.974121,4172.436035,4175.384766,3211.000000,4.000000,,,,0.000000,4.000000,4.000000,4.000000,4.000000,4.000000,4.000000,4.000000,4.000000,4.000000,4.000000,4.000000,4.000000,4.000000,4.000000,100.000000,,,,,,,,,,,,,,,,,,,,,,,,,,,,,,,,,,,,,,,,,,,,,,,,,,,,,,,,,,,,,,,,,,,,,,,,,,,,,,,,,,,,,,,,,,,,,,,,,,,,,,,,,,,,,,,,,
1606590780.543387,78.000000,0.000000,4180.641113,4166.410156,4174.102539,4176.922852,4144.487305,4187.948730,4217.692383,4196.666504,4183.717773,4216.922852,4173.846191,4173.846191,4176.025879,4176.153809,3177.000000,4.000000,,,,0.000000,4.000000,4.000000,4.000000,4.000000,4.000000,4.000000,4.000000,4.000000,4.000000,4.000000,4.000000,4.000000,4.000000,4.000000,100.000000,,,,,,,,,,,,,,,,,,,,,,,,,,,,,,,,,,,,,,,,,,,,1.670718,1.560016,0.743295,0.364811,0.224955,0.229381,0.484261,0.154924,0.150056,0.137480,0.801748,0.843345,0.654303,0.301792,0.148295,0.411999,0.710198,0.283502,0.259515,0.190430,0.970567,0.943294,0.497159,0.485097,0.200559,0.338313,0.389684,0.158396,0.080598,0.058133,0.362853,0.826315,0.247657,0.106014,0.100446,0.718915,1.606587,1.142556,0.104245,0.124184,1.725117,4.415640,1.888688,0.257578,0.186466,2.926674,3.616117,0.626609,0.428372,0.364295,1.870839,1.518232,0.662976,0.460887,0.369993,1.321203,1.312206,0.842416,0.263102,0.271168,2.380029,1.260400,0.649159,0.280918,0.237870,1.834102,1.301290,1.042988,0.518098,0.186771
1606590780.551185,79.000000,0.000000,4175.000000,4167.692383,4170.256348,4177.820313,4141.410156,4186.922852,4218.589844,4190.000000,4185.128418,4217.307617,4173.333496,4174.871582,4184.487305,4178.205078,3378.000000,4.000000,,,,0.000000,4.000000,4.000000,4.000000,4.000000,4.000000,4.000000,4.000000,4.000000,4.000000,4.000000,4.000000,4.000000,4.000000,4.000000,100.000000,,,,,,,,,,,,,,,,,,,,,,,,,,,,,,,,,,,,,,,,,,,,,,,,,,,,,,,,,,,,,,,,,,,,,,,,,,,,,,,,,,,,,,,,,,,,,,,,,,,,,,,,,,,,,,,,,
1606590780.558883,80.000000,0.000000,4173.717773,4170.128418,4171.922852,4177.436035,4146.153809,4190.384766,4216.538574,4195.256348,4185.384766,4215.897461,4178.333496,4178.589844,4184.871582,4175.512695,3370.000000,4.000000,,,,0.000000,4.000000,4.000000,4.000000,4.000000,4.000000,4.000000,4.000000,4.000000,4.000000,4.000000,4.000000,4.000000,4.000000,4.000000,100.000000,20.000000,0.000000,0.709695,-0.133606,-0.682007,-0.115540,1.000992,-0.098146,-0.052735,-36.038757,-119.182114,19.140917,,,,,,,,,,,,,,,,,,,,,,,,,,,,,,,,,,,,,,,,,,,,,,,,,,,,,,,,,,,,,,,,,,,,,,,,,,,,,,,,,,,,,,,,,,,,,,,,,,,,,
1606590780.566580,81.000000,0.000000,4182.307617,4170.512695,4170.897461,4180.384766,4155.256348,4199.358887,4214.743652,4198.205078,4184.102539,4215.641113,4179.102539,4175.769043,4180.769043,4171.538574,3211.000000,4.000000,,,,0.000000,4.000000,4.000000,4.000000,4.000000,4.000000,4.000000,4.000000,4.000000,4.000000,4.000000,4.000000,4.000000,4.000000,4.000000,100.000000,,,,,,,,,,,,,,,,,,,,,,,,,,,,,,,,,,,,,,,,,,,,,,,,,,,,,,,,,,,,,,,,,,,,,,,,,,,,,,,,,,,,,,,,,,,,,,,,,,,,,,,,,,,,,,,,,
1606590780.574279,82.000000,0.000000,4187.051270,4170.384766,4171.666504,4182.179688,4155.128418,4193.333496,4215.769043,4193.589844,4186.538574,4218.717773,4176.922852,4173.461426,4179.871582,4171.282227,3177.000000,4.000000,,,,0.000000,4.000000,4.000000,4.000000,4.000000,4.000000,4.000000,4.000000,4.000000,4.000000,4.000000,4.000000,4.000000,4.000000,4.000000,100.000000,,,,,,,,,,,,,,,,,,,,,,,,,,,,,,,,,,,,,,,,,,,,,,,,,,,,,,,,,,,,,,,,,,,,,,,,,,,,,,,,,,,,,,,,,,,,,,,,,,,,,,,,,,,,,,,,,
1606590780.582277,83.000000,0.000000,4183.589844,4176.922852,4177.563965,4181.025879,4151.282227,4185.641113,4218.589844,4196.922852,4196.794922,4222.436035,4178.717773,4178.974121,4185.512695,4178.077148,3378.000000,4.000000,,,,0.000000,4.000000,4.000000,4.000000,4.000000,4.000000,4.000000,4.000000,4.000000,4.000000,4.000000,4.000000,4.000000,4.000000,4.000000,100.000000,,,,,,,,,,,,,,,,,,,,,,,,,,,,,,,,,,,,,,,,,,,,,,,,,,,,,,,,,,,,,,,,,,,,,,,,,,,,,,,,,,,,,,,,,,,,,,,,,,,,,,,,,,,,,,,,,
1606590780.590176,84.000000,0.000000,4187.307617,4185.128418,4182.051270,4183.461426,4158.077148,4195.000000,4219.230957,4203.333496,4203.846191,4230.897461,4186.922852,4185.384766,4196.410156,4186.794922,3370.000000,4.000000,,,,0.000000,4.000000,4.000000,4.000000,4.000000,4.000000,4.000000,4.000000,4.000000,4.000000,4.000000,4.000000,4.000000,4.000000,4.000000,100.000000,21.000000,0.000000,0.709574,-0.133057,-0.682312,-0.115112,1.009293,-0.120119,-0.055177,-35.440605,-117.387657,18.542763,,,,,,,,,,,,,,,,,,,,,,,,,,,,,,,,,,,,,,,,,,,,,,,,,,,,,,,,,,,,,,,,,,,,,,,,,,,,,,,,,,,,,,,,,,,,,,,,,,,,,
1606590780.598074,85.000000,0.000000,4195.000000,4185.641113,4185.128418,4186.922852,4161.410156,4197.692383,4218.846191,4201.410156,4199.487305,4239.230957,4190.000000,4191.282227,4199.615234,4188.333496,3211.000000,4.000000,,,,0.000000,4.000000,4.000000,4.000000,4.000000,4.000000,4.000000,4.000000,4.000000,4.000000,4.000000,4.000000,4.000000,4.000000,4.000000,100.000000,,,,,,,,,,,,,,,,,,,,,,,,,,,,,,,,,,,,,,,,,,,,,,,,,,,,,,,,,,,,,,,,,,,,,,,,,,,,,,,,,,,,,,,,,,,,,,,,,,,,,,,,,,,,,,,,,
1606590780.605972,86.000000,0.000000,4191.410156,4183.205078,4183.077148,4185.256348,4156.025879,4191.025879,4218.846191,4199.871582,4198.205078,4239.102539,4188.717773,4194.487305,4195.641113,4186.666504,3177.000000,4.000000,,,,0.000000,4.000000,4.000000,4.000000,4.000000,4.000000,4.000000,4.000000,4.000000,4.000000,4.000000,4.000000,4.000000,4.000000,4.000000,100.000000,,,,,,,,,,,,,,,,,,,,,,,,,,,,,,,,,,,,,,,,,,,,,,,,,,,,,,,,,,,,,,,,,,,,,,,,,,,,,,,,,,,,,,,,,,,,,,,,,,,,,,,,,,,,,,,,,
1606590780.613970,87.000000,0.000000,4181.794922,4182.692383,4175.000000,4183.589844,4158.461426,4193.077148,4216.025879,4200.641113,4197.436035,4232.307617,4192.692383,4187.563965,4198.333496,4184.615234,3378.000000,4.000000,,,,0.000000,4.000000,4.000000,4.000000,4.000000,4.000000,4.000000,4.000000,4.000000,4.000000,4.000000,4.000000,4.000000,4.000000,4.000000,100.000000,,,,,,,,,,,,,,,,,,,,,,,,,,,,,,,,,,,,,,,,,,,,,,,,,,,,,,,,,,,,,,,,,,,,,,,,,,,,,,,,,,,,,,,,,,,,,,,,,,,,,,,,,,,,,,,,,
1606590780.621868,88.000000,0.000000,4181.922852,4183.461426,4175.769043,4184.871582,4165.769043,4198.077148,4214.871582,4199.230957,4195.769043,4235.512695,4196.410156,4182.436035,4203.974121,4181.666504,3370.000000,4.000000,,,,0.000000,4.000000,4.000000,4.000000,4.000000,4.000000,4.000000,4.000000,4.000000,4.000000,4.000000,4.000000,4.000000,4.000000,4.000000,100.000000,22.000000,0.000000,0.709486,-0.133057,-0.682434,-0.114929,0.998550,-0.111330,-0.063478,-35.440605,-120.079346,18.542763,,,,,,,,,,,,,,,,,,,,,,,,,,,,,,,,,,,,,,,,,,,,,,,,,,,,,,,,,,,,,,,,,,,,,,,,,,,,,,,,,,,,,,,,,,,,,,,,,,,,,
1606590780.629666,89.000000,0.000000,4192.307617,4184.871582,4186.922852,4186.794922,4164.871582,4197.307617,4221.794922,4202.436035,4206.153809,4246.025879,4199.230957,4197.820313,4208.717773,4192.051270,3211.000000,4.000000,,,,0.000000,4.000000,4.000000,4.000000,4.000000,4.000000,4.000000,4.000000,4.000000,4.000000,4.000000,4.000000,4.000000,4.000000,4.000000,100.000000,,,,,,,,,,,,,,,,,,,,,,,,,,,,,,,,,,,,,,,,,,,,,,,,,,,,,,,,,,,,,,,,,,,,,,,,,,,,,,,,,,,,,,,,,,,,,,,,,,,,,,,,,,,,,,,,,
1606590780.637363,90.000000,0.000000,4199.358887,4186.025879,4190.769043,4186.538574,4162.179688,4198.974121,4224.615234,4204.871582,4212.436035,4242.436035,4201.538574,4210.512695,4207.692383,4205.256348,3177.000000,4.000000,,,,0.000000,4.000000,4.000000,4.000000,4.000000,4.000000,4.000000,4.000000,4.000000,4.000000,4.000000,4.000000,4.000000,4.000000,4.000000,100.000000,,,,,,,,,,,,,,,,,,,,,,,,,,,,,,,,,,,,,,,,,,,,,,,,,,,,,,,,,,,,,,,,,,,,,,,,,,,,,,,,,,,,,,,,,,,,,,,,,,,,,,,,,,,,,,,,,
1606590780.644960,91.000000,0.000000,4195.512695,4182.948730,4185.384766,4185.384766,4163.077148,4200.512695,4219.358887,4197.820313,4197.563965,4234.230957,4202.563965,4197.692383,4195.512695,4199.743652,3378.000000,4.000000,,,,0.000000,4.000000,4.000000,4.000000,4.000000,4.000000,4.000000,4.000000,4.000000,4.000000,4.000000,4.000000,4.000000,4.000000,4.000000,100.000000,,,,,,,,,,,,,,,,,,,,,,,,,,,,,,,,,,,,,,,,,,,,,,,,,,,,,,,,,,,,,,,,,,,,,,,,,,,,,,,,,,,,,,,,,,,,,,,,,,,,,,,,,,,,,,,,,
1606590780.652658,92.000000,0.000000,4190.256348,4175.384766,4185.641113,4182.179688,4160.000000,4197.692383,4214.102539,4190.128418,4187.692383,4233.205078,4191.025879,4184.102539,4186.666504,4184.358887,3370.000000,4.000000,,,,0.000000,4.000000,4.000000,4.000000,4.000000,4.000000,4.000000,4.000000,4.000000,4.000000,4.000000,4.000000,4.000000,4.000000,4.000000,100.000000,23.000000,0.000000,0.709433,-0.132874,-0.682617,-0.114380,1.006851,-0.115236,-0.052735,-34.842449,-118.733498,18.393225,,,,,,,,,,,,,,,,,,,,,,,,,,,,,,,,,,,,,,,,,,,,,,,,,,,,,,,,,,,,,,,,,,,,,,,,,,,,,,,,,,,,,,,,,,,,,,,,,,,,,
1606590780.660355,93.000000,0.000000,4184.487305,4168.846191,4182.692383,4176.538574,4163.205078,4200.256348,4208.205078,4187.051270,4186.153809,4222.563965,4169.358887,4180.000000,4181.410156,4172.692383,3211.000000,4.000000,,,,0.000000,4.000000,4.000000,4.000000,4.000000,4.000000,4.000000,4.000000,4.000000,4.000000,4.000000,4.000000,4.000000,4.000000,4.000000,100.000000,,,,,,,,,,,,,,,,,,,,,,,,,,,,,,,,,,,,,,,,,,,,,,,,,,,,,,,,,,,,,,,,,,,,,,,,,,,,,,,,,,,,,,,,,,,,,,,,,,,,,,,,,,,,,,,,,
1606590780.668053,94.000000,0.000000,4175.256348,4167.948730,4170.897461,4172.692383,4168.589844,4203.717773,4206.794922,4184.487305,4175.384766,4200.897461,4163.589844,4173.717773,4171.538574,4166.025879,3177.000000,4.000000,,,,0.000000,4.000000,4.000000,4.000000,4.000000,4.000000,4.000000,4.000000,4.000000,4.000000,4.000000,4.000000,4.000000,4.000000,4.000000,100.000000,,,,,,,,,,,,,,,,,,,,,,,,,,,,,,,,,,,,,,,,,,,,1.337852,1.585502,0.643376,0.304062,0.200108,0.192512,0.440575,0.162321,0.119829,0.115564,0.877307,0.899045,0.650203,0.279472,0.132735,0.542761,0.724375,0.280105,0.200553,0.162095,1.108515,1.158119,0.459646,0.359626,0.186492,0.316298,0.344331,0.126184,0.069338,0.049134,0.437834,0.706924,0.249141,0.095920,0.100016,0.774183,1.502579,0.920389,0.114191,0.121973,1.743274,3.949847,1.522866,0.275863,0.191508,2.945948,3.193452,0.677593,0.389702,0.323868,1.781305,1.388281,0.722610,0.425841,0.350680,1.260595,1.226668,0.818199,0.236827,0.263732,2.192886,1.099403,0.672461,0.257054,0.228174,1.545293,1.322020,1.040479,0.456527,0.187165
1606590780.676051,95.000000,0.000000,4173.974121,4169.358887,4169.743652,4174.102539,4160.384766,4198.589844,4213.205078,4186.410156,4176.538574,4200.641113,4173.974121,4171.794922,4171.666504,4170.128418,3378.000000,4.000000,,,,0.000000,4.000000,4.000000,4.000000,4.000000,4.000000,4.000000,4.000000,4.000000,4.000000,4.000000,4.000000,4.000000,4.000000,4.000000,100.000000,,,,,,,,,,,,,,,,,,,,,,,,,,,,,,,,,,,,,,,,,,,,,,,,,,,,,,,,,,,,,,,,,,,,,,,,,,,,,,,,,,,,,,,,,,,,,,,,,,,,,,,,,,,,,,,,,
1606590780.683949,96.000000,0.000000,4184.358887,4169.358887,4181.153809,4177.820313,4148.461426,4196.410156,4218.974121,4197.307617,4197.563965,4224.102539,4186.922852,4181.922852,4184.871582,4183.461426,3370.000000,4.000000,,,,0.000000,4.000000,4.000000,4.000000,4.000000,4.000000,4.000000,4.000000,4.000000,4.000000,4.000000,4.000000,4.000000,4.000000,4.000000,100.000000,24.000000,0.000000,0.709213,-0.132690,-0.682983,-0.113770,1.000992,-0.112306,-0.054200,-36.038757,-118.434425,17.944611,,,,,,,,,,,,,,,,,,,,,,,,,,,,,,,,,,,,,,,,,,,,,,,,,,,,,,,,,,,,,,,,,,,,,,,,,,,,,,,,,,,,,,,,,,,,,,,,,,,,,
1606590780.691647,97.000000,0.000000,4192.820313,4173.077148,4186.666504,4181.538574,4150.384766,4197.307617,4218.589844,4200.384766,4206.025879,4235.641113,4196.666504,4194.871582,4195.641113,4192.051270,3211.000000,4.000000,,,,0.000000,4.000000,4.000000,4.000000,4.000000,4.000000,4.000000,4.000000,4.000000,4.000000,4.000000,4.000000,4.000000,4.000000,4.000000,100.000000,,,,,,,,,,,,,,,,,,,,,,,,,,,,,,,,,,,,,,,,,,,,,,,,,,,,,,,,,,,,,,,,,,,,,,,,,,,,,,,,,,,,,,,,,,,,,,,,,,,,,,,,,,,,,,,,,
1606590780.699345,98.000000,0.000000,4195.512695,4180.256348,4184.487305,4184.358887,4156.410156,4192.692383,4218.461426,4188.974121,4193.333496,4230.256348,4198.333496,4194.487305,4202.692383,4191.666504,3177.000000,4.000000,,,,0.000000,4.000000,4.000000,4.000000,4.000000,4.000000,4.000000,4.000000,4.000000,4.000000,4.000000,4.000000,4.000000,4.000000,4.000000,100.000000,,,,,,,,,,,,,,,,,,,,,,,,,,,,,,,,,,,,,,,,,,,,,,,,,,,,,,,,,,,,,,,,,,,,,,,,,,,,,,,,,,,,,,,,,,,,,,,,,,,,,,,,,,,,,,,,,
1606590780.706943,99.000000,0.000000,4196.922852,4185.769043,4185.000000,4185.897461,4153.589844,4188.205078,4219.230957,4182.307617,4182.692383,4221.794922,4188.974121,4187.948730,4204.487305,4187.692383,3378.000000,4.000000,,,,0.000000,4.000000,4.000000,4.000000,4.000000,4.000000,4.000000,4.000000,4.000000,4.000000,4.000000,4.000000,4.000000,4.000000,4.000000,100.000000,,,,,,,,,,,,,,,,,,,,,,,,,,,,,,,,,,,,,,,,,,,,,,,,,,,,,,,,,,,,,,,,,,,,,,,,,,,,,,,,,,,,,,,,,,,,,,,,,,,,,,,,,,,,,,,,,
1606590780.714640,100.000000,0.000000,4193.717773,4186.922852,4184.102539,4187.436035,4155.384766,4191.922852,4217.307617,4183.589844,4179.743652,4210.897461,4178.846191,4183.077148,4191.666504,4180.512695,3370.000000,4.000000,,,,0.000000,4.000000,4.000000,4.000000,4.000000,4.000000,4.000000,4.000000,4.000000,4.000000,4.000000,4.000000,4.000000,4.000000,4.000000,100.000000,25.000000,0.000000,0.709042,-0.132507,-0.683228,-0.113586,1.009293,-0.103029,-0.058106,-35.141529,-118.583961,17.346457,,,,,,,,,,,,,,,,,,,,,,,,,,,,,,,,,,,,,,,,,,,,,,,,,,,,,,,,,,,,,,,,,,,,,,,,,,,,,,,,,,,,,,,,,,,,,,,,,,,,,
1606590780.722338,101.000000,0.000000,4187.436035,4181.922852,4177.051270,4186.922852,4163.461426,4197.051270,4217.820313,4186.282227,4184.743652,4206.666504,4180.000000,4176.538574,4183.205078,4174.230957,3211.000000,4.000000,,,,0.000000,4.000000,4.000000,4.000000,4.000000,4.000000,4.000000,4.000000,4.000000,4.000000,4.000000,4.000000,4.000000,4.000000,4.000000,100.000000,,,,,,,,,,,,,,,,,,,,,,,,,,,,,,,,,,,,,,,,,,,,,,,,,,,,,,,,,,,,,,,,,,,,,,,,,,,,,,,,,,,,,,,,,,,,,,,,,,,,,,,,,,,,,,,,,
1606590780.730036,102.000000,0.000000,4179.871582,4176.410156,4170.769043,4181.153809,4164.358887,4196.922852,4218.846191,4189.871582,4193.205078,4215.897461,4177.051270,4171.025879,4181.538574,4164.871582,3177.000000,4.000000,,,,0.000000,4.000000,4.000000,4.000000,4.000000,4.000000,4.000000,4.000000,4.000000,4.000000,4.000000,4.000000,4.000000,4.000000,4.000000,100.000000,,,,,,,,,,,,,,,,,,,,,,,,,,,,,,,,,,,,,,,,,,,,,,,,,,,,,,,,,,,,,,,,,,,,,,,,,,,,,,,,,,,,,,,,,,,,,,,,,,,,,,,,,,,,,,,,,
1606590780.737834,103.000000,0.000000,4170.641113,4171.282227,4165.512695,4171.282227,4162.948730,4197.307617,4214.102539,4186.282227,4185.641113,4209.102539,4164.230957,4159.615234,4171.666504,4144.871582,3378.000000,4.000000,,,,0.000000,4.000000,4.000000,4.000000,4.000000,4.000000,4.000000,4.000000,4.000000,4.000000,4.000000,4.000000,4.000000,4.000000,4.000000,100.000000,,,,,,,,,,,,,,,,,,,,,,,,,,,,,,,,,,,,,,,,,,,,,,,,,,,,,,,,,,,,,,,,,,,,,,,,,,,,,,,,,,,,,,,,,,,,,,,,,,,,,,,,,,,,,,,,,
1606590780.745533,104.000000,0.000000,4173.461426,4168.333496,4167.307617,4167.948730,4166.153809,4197.436035,4209.871582,4181.538574,4175.897461,4193.846191,4158.205078,4161.538574,4169.230957,4142.179688,3370.000000,4.000000,,,,0.000000,4.000000,4.000000,4.000000,4.000000,4.000000,4.000000,4.000000,4.000000,4.000000,4.000000,4.000000,4.000000,4.000000,4.000000,100.000000,26.000000,0.000000,0.708997,-0.131958,-0.683472,-0.113037,1.000015,-0.108400,-0.066407,-34.244297,-118.583961,18.542763,,,,,,,,,,,,,,,,,,,,,,,,,,,,,,,,,,,,,,,,,,,,,,,,,,,,,,,,,,,,,,,,,,,,,,,,,,,,,,,,,,,,,,,,,,,,,,,,,,,,,
1606590780.753430,105.000000,0.000000,4185.256348,4170.128418,4178.077148,4170.769043,4162.948730,4193.205078,4215.769043,4191.153809,4186.922852,4215.512695,4171.922852,4187.820313,4184.230957,4173.846191,3211.000000,4.000000,,,,0.000000,4.000000,4.000000,4.000000,4.000000,4.000000,4.000000,4.000000,4.000000,4.000000,4.000000,4.000000,4.000000,4.000000,4.000000,100.000000,,,,,,,,,,,,,,,,,,,,,,,,,,,,,,,,,,,,,,,,,,,,,,,,,,,,,,,,,,,,,,,,,,,,,,,,,,,,,,,,,,,,,,,,,,,,,,,,,,,,,,,,,,,,,,,,,
1606590780.761128,106.000000,0.000000,4189.230957,4173.205078,4186.025879,4171.410156,4149.871582,4186.025879,4221.282227,4201.538574,4201.282227,4238.589844,4195.897461,4205.769043,4196.922852,4197.948730,3177.000000,4.000000,,,,0.000000,4.000000,4.000000,4.000000,4.000000,4.000000,4.000000,4.000000,4.000000,4.000000,4.000000,4.000000,4.000000,4.000000,4.000000,100.000000,,,,,,,,,,,,,,,,,,,,,,,,,,,,,,,,,,,,,,,,,,,,,,,,,,,,,,,,,,,,,,,,,,,,,,,,,,,,,,,,,,,,,,,,,,,,,,,,,,,,,,,,,,,,,,,,,
1606590780.768929,107.000000,0.000000,4185.897461,4170.897461,4184.102539,4171.025879,4144.615234,4186.666504,4217.948730,4197.436035,4198.846191,4222.307617,4200.256348,4199.871582,4192.436035,4192.563965,3378.000000,4.000000,,,,0.000000,4.000000,4.000000,4.000000,4.000000,4.000000,4.000000,4.000000,4.000000,4.000000,4.000000,4.000000,4.000000,4.000000,4.000000,100.000000,,,,,,,,,,,,,,,,,,,,,,,,,,,,,,,,,,,,,,,,,,,,,,,,,,,,,,,,,,,,,,,,,,,,,,,,,,,,,,,,,,,,,,,,,,,,,,,,,,,,,,,,,,,,,,,,,
1606590780.776830,108.000000,0.000000,4188.205078,4167.692383,4182.692383,4173.589844,4149.871582,4192.436035,4216.794922,4192.948730,4196.666504,4215.512695,4194.615234,4196.410156,4191.153809,4192.307617,3370.000000,4.000000,,,,0.000000,4.000000,4.000000,4.000000,4.000000,4.000000,4.000000,4.000000,4.000000,4.000000,4.000000,4.000000,4.000000,4.000000,4.000000,100.000000,27.000000,0.000000,0.708776,-0.131348,-0.683899,-0.112549,0.998062,-0.112795,-0.056153,-34.692913,-119.780273,17.346457,,,,,,,,,,,,,,,,,,,,,,,,,,,,,,,,,,,,,,,,,,,,,,,,,,,,,,,,,,,,,,,,,,,,,,,,,,,,,,,,,,,,,,,,,,,,,,,,,,,,,
1606590780.784729,109.000000,0.000000,4192.820313,4170.000000,4187.820313,4176.282227,4153.717773,4190.769043,4217.820313,4192.948730,4196.794922,4232.563965,4196.153809,4203.974121,4195.512695,4205.769043,3211.000000,4.000000,,,,0.000000,4.000000,4.000000,4.000000,4.000000,4.000000,4.000000,4.000000,4.000000,4.000000,4.000000,4.000000,4.000000,4.000000,4.000000,100.000000,,,,,,,,,,,,,,,,,,,,,,,,,,,,,,,,,,,,,,,,,,,,,,,,,,,,,,,,,,,,,,,,,,,,,,,,,,,,,,,,,,,,,,,,,,,,,,,,,,,,,,,,,,,,,,,,,
1606590780.792629,110.000000,0.000000,4185.384766,4171.666504,4183.717773,4172.820313,4157.436035,4190.256348,4215.897461,4189.358887,4189.230957,4226.794922,4193.974121,4198.974121,4190.897461,4205.769043,3177.000000,4.000000,,,,0.000000,4.000000,4.000000,4.000000,4.000000,4.000000,4.000000,4.000000,4.000000,4.000000,4.000000,4.000000,4.000000,4.000000,4.000000,100.000000,,,,,,,,,,,,,,,,,,,,,,,,,,,,,,,,,,,,,,,,,,,,1.196896,1.530537,0.515611,0.266744,0.176837,0.202709,0.394751,0.157844,0.098972,0.105931,0.934151,0.895267,0.592061,0.263183,0.123382,0.672354,0.693748,0.252115,0.161189,0.148024,1.299620,1.388079,0.433246,0.249791,0.186284,0.281361,0.296121,0.108508,0.057517,0.042884,0.509963,0.544382,0.282320,0.091160,0.105587,0.820605,1.277314,0.765578,0.133525,0.118916,1.646371,3.058768,1.200115,0.290813,0.204811,2.842336,2.509831,0.736850,0.346616,0.311481,1.692065,1.245334,0.724071,0.384946,0.339656,1.224627,1.097116,0.753308,0.219979,0.267195,2.034347,0.950732,0.660337,0.241900,0.226797,1.304899,1.291479,0.983097,0.386273,0.201185
1606590780.800629,111.000000,0.000000,4174.230957,4169.230957,4173.974121,4170.256348,4161.025879,4196.282227,4211.410156,4188.589844,4184.358887,4202.820313,4183.333496,4187.436035,4179.487305,4189.615234,3378.000000,4.000000,,,,0.000000,4.000000,4.000000,4.000000,4.000000,4.000000,4.000000,4.000000,4.000000,4.000000,4.000000,4.000000,4.000000,4.000000,4.000000,100.000000,,,,,,,,,,,,,,,,,,,,,,,,,,,,,,,,,,,,,,,,,,,,,,,,,,,,,,,,,,,,,,,,,,,,,,,,,,,,,,,,,,,,,,,,,,,,,,,,,,,,,,,,,,,,,,,,,
1606590780.808529,112.000000,0.000000,4176.922852,4168.974121,4178.333496,4175.128418,4165.641113,4201.666504,4206.794922,4194.615234,4185.384766,4202.948730,4182.051270,4187.436035,4179.615234,4180.769043,3370.000000,4.000000,,,,0.000000,4.000000,4.000000,4.000000,4.000000,4.000000,4.000000,4.000000,4.000000,4.000000,4.000000,4.000000,4.000000,4.000000,4.000000,100.000000,28.000000,0.000000,0.708607,-0.131409,-0.684082,-0.112427,1.007340,-0.119631,-0.065919,-36.487373,-119.481194,19.140917,,,,,,,,,,,,,,,,,,,,,,,,,,,,,,,,,,,,,,,,,,,,,,,,,,,,,,,,,,,,,,,,,,,,,,,,,,,,,,,,,,,,,,,,,,,,,,,,,,,,,
1606590780.816428,113.000000,0.000000,4180.384766,4172.563965,4185.512695,4177.436035,4169.230957,4198.205078,4204.743652,4200.512695,4184.743652,4213.077148,4183.846191,4197.692383,4185.384766,4187.051270,3211.000000,4.000000,,,,0.000000,4.000000,4.000000,4.000000,4.000000,4.000000,4.000000,4.000000,4.000000,4.000000,4.000000,4.000000,4.000000,4.000000,4.000000,100.000000,,,,,,,,,,,,,,,,,,,,,,,,,,,,,,,,,,,,,,,,,,,,,,,,,,,,,,,,,,,,,,,,,,,,,,,,,,,,,,,,,,,,,,,,,,,,,,,,,,,,,,,,,,,,,,,,,
1606590780.824328,114.000000,0.000000,4172.179688,4172.948730,4177.948730,4172.948730,4169.358887,4194.358887,4205.128418,4200.769043,4181.794922,4205.769043,4177.307617,4197.692383,4176.538574,4184.871582,3177.000000,4.000000,,,,0.000000,4.000000,4.000000,4.000000,4.000000,4.000000,4.000000,4.000000,4.000000,4.000000,4.000000,4.000000,4.000000,4.000000,4.000000,100.000000,,,,,,,,,,,,,,,,,,,,,,,,,,,,,,,,,,,,,,,,,,,,,,,,,,,,,,,,,,,,,,,,,,,,,,,,,,,,,,,,,,,,,,,,,,,,,,,,,,,,,,,,,,,,,,,,,
1606590780.832327,115.000000,0.000000,4166.538574,4171.922852,4166.922852,4166.538574,4171.538574,4199.615234,4204.102539,4192.692383,4175.000000,4188.077148,4174.743652,4177.179688,4166.282227,4167.692383,3378.000000,4.000000,,,,0.000000,4.000000,4.000000,4.000000,4.000000,4.000000,4.000000,4.000000,4.000000,4.000000,4.000000,4.000000,4.000000,4.000000,4.000000,100.000000,,,,,,,,,,,,,,,,,,,,,,,,,,,,,,,,,,,,,,,,,,,,,,,,,,,,,,,,,,,,,,,,,,,,,,,,,,,,,,,,,,,,,,,,,,,,,,,,,,,,,,,,,,,,,,,,,
1606590780.840225,116.000000,0.000000,4161.922852,4170.512695,4166.794922,4162.436035,4172.692383,4200.897461,4204.102539,4191.153809,4174.102539,4190.769043,4174.615234,4168.974121,4171.922852,4162.051270,3370.000000,4.000000,,,,0.000000,4.000000,4.000000,4.000000,4.000000,4.000000,4.000000,4.000000,4.000000,4.000000,4.000000,4.000000,4.000000,4.000000,4.000000,100.000000,29.000000,0.000000,0.708498,-0.131409,-0.684265,-0.112000,0.998062,-0.118654,-0.066407,-35.889221,-117.836273,18.542763,,,,,,,,,,,,,,,,,,,,,,,,,,,,,,,,,,,,,,,,,,,,,,,,,,,,,,,,,,,,,,,,,,,,,,,,,,,,,,,,,,,,,,,,,,,,,,,,,,,,,
1606590780.848124,117.000000,0.000000,4150.000000,4165.897461,4168.589844,4161.666504,4169.102539,4192.179688,4207.563965,4201.282227,4182.307617,4205.384766,4173.717773,4175.641113,4177.563965,4167.307617,3211.000000,4.000000,,,,0.000000,4.000000,4.000000,4.000000,4.000000,4.000000,4.000000,4.000000,4.000000,4.000000,4.000000,4.000000,4.000000,4.000000,4.000000,100.000000,,,,,,,,,,,,,,,,,,,,,,,,,,,,,,,,,,,,,,,,,,,,,,,,,,,,,,,,,,,,,,,,,,,,,,,,,,,,,,,,,,,,,,,,,,,,,,,,,,,,,,,,,,,,,,,,,
1606590780.856023,118.000000,0.000000,4155.641113,4174.102539,4167.820313,4167.563965,4166.410156,4183.333496,4202.179688,4200.512695,4182.820313,4199.615234,4172.820313,4173.077148,4175.128418,4166.282227,3177.000000,4.000000,,,,0.000000,4.000000,4.000000,4.000000,4.000000,4.000000,4.000000,4.000000,4.000000,4.000000,4.000000,4.000000,4.000000,4.000000,4.000000,100.000000,,,,,,,,,,,,,,,,,,,,,,,,,,,,,,,,,,,,,,,,,,,,,,,,,,,,,,,,,,,,,,,,,,,,,,,,,,,,,,,,,,,,,,,,,,,,,,,,,,,,,,,,,,,,,,,,,
1606590780.864023,119.000000,0.000000,4168.589844,4184.871582,4165.769043,4172.948730,4170.000000,4187.436035,4193.077148,4188.077148,4173.333496,4188.974121,4168.974121,4169.615234,4175.128418,4165.897461,3378.000000,4.000000,,,,0.000000,4.000000,4.000000,4.000000,4.000000,4.000000,4.000000,4.000000,4.000000,4.000000,4.000000,4.000000,4.000000,4.000000,4.000000,100.000000,,,,,,,,,,,,,,,,,,,,,,,,,,,,,,,,,,,,,,,,,,,,,,,,,,,,,,,,,,,,,,,,,,,,,,,,,,,,,,,,,,,,,,,,,,,,,,,,,,,,,,,,,,,,,,,,,
1606590780.871923,120.000000,0.000000,4159.230957,4176.025879,4165.897461,4168.846191,4175.384766,4192.436035,4194.743652,4187.692383,4170.000000,4193.461426,4170.897461,4175.897461,4173.589844,4170.384766,3370.000000,4.000000,,,,0.000000,4.000000,4.000000,4.000000,4.000000,4.000000,4.000000,4.000000,4.000000,4.000000,4.000000,4.000000,4.000000,4.000000,4.000000,100.000000,30.000000,0.000000,0.708443,-0.132019,-0.684204,-0.112000,1.001480,-0.111330,-0.063966,-36.487373,-119.929810,16.748302,,,,,,,,,,,,,,,,,,,,,,,,,,,,,,,,,,,,,,,,,,,,,,,,,,,,,,,,,,,,,,,,,,,,,,,,,,,,,,,,,,,,,,,,,,,,,,,,,,,,,
1606590780.879823,121.000000,0.000000,4155.000000,4170.256348,4168.077148,4166.666504,4174.358887,4189.871582,4199.743652,4196.282227,4176.666504,4198.205078,4175.384766,4177.948730,4168.077148,4172.692383,3211.000000,4.000000,,,,0.000000,4.000000,4.000000,4.000000,4.000000,4.000000,4.000000,4.000000,4.000000,4.000000,4.000000,4.000000,4.000000,4.000000,4.000000,100.000000,,,,,,,,,,,,,,,,,,,,,,,,,,,,,,,,,,,,,,,,,,,,,,,,,,,,,,,,,,,,,,,,,,,,,,,,,,,,,,,,,,,,,,,,,,,,,,,,,,,,,,,,,,,,,,,,,
1606590780.887823,122.000000,0.000000,4167.563965,4183.974121,4168.589844,4170.897461,4171.410156,4192.051270,4201.153809,4197.820313,4183.205078,4198.205078,4174.358887,4173.461426,4169.102539,4176.282227,3177.000000,4.000000,,,,0.000000,4.000000,4.000000,4.000000,4.000000,4.000000,4.000000,4.000000,4.000000,4.000000,4.000000,4.000000,4.000000,4.000000,4.000000,100.000000,,,,,,,,,,,,,,,,,,,,,,,,,,,,,,,,,,,,,,,,,,,,,,,,,,,,,,,,,,,,,,,,,,,,,,,,,,,,,,,,,,,,,,,,,,,,,,,,,,,,,,,,,,,,,,,,,
1606590780.895723,123.000000,0.000000,4172.563965,4191.153809,4173.974121,4175.769043,4175.769043,4198.077148,4199.615234,4199.871582,4186.538574,4200.769043,4173.974121,4179.230957,4173.589844,4184.358887,3378.000000,4.000000,,,,0.000000,4.000000,4.000000,4.000000,4.000000,4.000000,4.000000,4.000000,4.000000,4.000000,4.000000,4.000000,4.000000,4.000000,4.000000,100.000000,,,,,,,,,,,,,,,,,,,,,,,,,,,,,,,,,,,,,,,,,,,,,,,,,,,,,,,,,,,,,,,,,,,,,,,,,,,,,,,,,,,,,,,,,,,,,,,,,,,,,,,,,,,,,,,,,
1606590780.903622,124.000000,0.000000,4168.589844,4185.641113,4179.487305,4173.974121,4181.410156,4201.153809,4198.717773,4200.641113,4182.051270,4196.538574,4175.000000,4186.538574,4173.205078,4188.205078,3370.000000,4.000000,,,,0.000000,4.000000,4.000000,4.000000,4.000000,4.000000,4.000000,4.000000,4.000000,4.000000,4.000000,4.000000,4.000000,4.000000,4.000000,100.000000,31.000000,0.000000,0.708569,-0.132507,-0.683899,-0.112488,0.993179,-0.092775,-0.060548,-34.244297,-118.284889,17.795071,,,,,,,,,,,,,,,,,,,,,,,,,,,,,,,,,,,,,,,,,,,,,,,,,,,,,,,,,,,,,,,,,,,,,,,,,,,,,,,,,,,,,,,,,,,,,,,,,,,,,
1606590780.911522,125.000000,0.000000,4168.205078,4183.461426,4177.307617,4168.461426,4175.897461,4195.000000,4197.948730,4196.538574,4176.025879,4189.358887,4175.000000,4186.410156,4170.256348,4186.794922,3211.000000,4.000000,,,,0.000000,4.000000,4.000000,4.000000,4.000000,4.000000,4.000000,4.000000,4.000000,4.000000,4.000000,4.000000,4.000000,4.000000,4.000000,100.000000,,,,,,,,,,,,,,,,,,,,,,,,,,,,,,,,,,,,,,,,,,,,,,,,,,,,,,,,,,,,,,,,,,,,,,,,,,,,,,,,,,,,,,,,,,,,,,,,,,,,,,,,,,,,,,,,,
1606590780.919422,126.000000,0.000000,4165.897461,4182.436035,4174.743652,4166.410156,4165.384766,4185.384766,4200.769043,4198.333496,4180.384766,4195.641113,4182.307617,4185.897461,4171.666504,4187.436035,3177.000000,4.000000,,,,0.000000,4.000000,4.000000,4.000000,4.000000,4.000000,4.000000,4.000000,4.000000,4.000000,4.000000,4.000000,4.000000,4.000000,4.000000,100.000000,,,,,,,,,,,,,,,,,,,,,,,,,,,,,,,,,,,,,,,,,,,,1.199981,1.394690,0.390448,0.251290,0.157502,0.260473,0.370856,0.143280,0.086288,0.107779,0.953683,0.822548,0.489426,0.250634,0.116970,0.767867,0.641346,0.213195,0.137486,0.141594,1.446092,1.574747,0.426316,0.168687,0.200178,0.238716,0.250147,0.111194,0.047498,0.042344,0.567068,0.392177,0.349277,0.092726,0.113768,0.852645,1.028852,0.715463,0.156930,0.115517,1.486380,2.025702,0.996760,0.297391,0.223819,2.641207,1.749754,0.780958,0.304319,0.314750,1.599550,1.104070,0.674744,0.341982,0.327567,1.213275,0.929413,0.669790,0.216342,0.269147,1.882627,0.851773,0.623832,0.234886,0.230650,1.160879,1.202935,0.899731,0.325832,0.218232
1606590780.927422,127.000000,0.000000,4162.563965,4184.102539,4173.205078,4168.717773,4163.205078,4187.692383,4202.051270,4203.717773,4191.794922,4209.615234,4190.384766,4188.717773,4181.922852,4194.230957,59.000000,4.000000,,,,0.000000,4.000000,4.000000,4.000000,4.000000,4.000000,4.000000,4.000000,4.000000,4.000000,4.000000,4.000000,4.000000,4.000000,4.000000,100.000000,,,,,,,,,,,,,,,,,,,,,,,,,,,,,,,,,,,,,,,,,,,,,,,,,,,,,,,,,,,,,,,,,,,,,,,,,,,,,,,,,,,,,,,,,,,,,,,,,,,,,,,,,,,,,,,,,
1606590780.935320,0.000000,0.000000,4159.743652,4182.179688,4169.102539,4167.563965,4167.051270,4196.666504,4201.410156,4205.641113,4198.205078,4212.692383,4184.487305,4186.410156,4184.487305,4191.794922,3329.000000,4.000000,,,,0.000000,4.000000,4.000000,4.000000,4.000000,4.000000,4.000000,4.000000,4.000000,4.000000,4.000000,4.000000,4.000000,4.000000,4.000000,100.000000,0.000000,0.000000,0.708737,-0.133240,-0.683472,-0.113159,1.008316,-0.105959,-0.054200,-34.692913,-117.387657,18.841841,,,,,,,,,,,,,,,,,,,,,,,,,,,,,,,,,,,,,,,,,,,,,,,,,,,,,,,,,,,,,,,,,,,,,,,,,,,,,,,,,,,,,,,,,,,,,,,,,,,,,
1606590780.943219,1.000000,0.000000,4153.333496,4175.512695,4165.897461,4162.051270,4176.666504,4198.846191,4198.717773,4203.205078,4194.615234,4203.205078,4172.563965,4175.384766,4172.436035,4175.641113,3490.000000,4.000000,,,,0.000000,4.000000,4.000000,4.000000,4.000000,4.000000,4.000000,4.000000,4.000000,4.000000,4.000000,4.000000,4.000000,4.000000,4.000000,100.000000,,,,,,,,,,,,,,,,,,,,,,,,,,,,,,,,,,,,,,,,,,,,,,,,,,,,,,,,,,,,,,,,,,,,,,,,,,,,,,,,,,,,,,,,,,,,,,,,,,,,,,,,,,,,,,,,,
1606590780.951119,2.000000,0.000000,4151.922852,4177.436035,4166.025879,4164.615234,4182.820313,4195.384766,4195.384766,4194.358887,4184.230957,4193.974121,4170.128418,4167.307617,4165.641113,4166.922852,3517.000000,4.000000,,,,0.000000,4.000000,4.000000,4.000000,4.000000,4.000000,4.000000,4.000000,4.000000,4.000000,4.000000,4.000000,4.000000,4.000000,4.000000,100.000000,,,,,,,,,,,,,,,,,,,,,,,,,,,,,,,,,,,,,,,,,,,,,,,,,,,,,,,,,,,,,,,,,,,,,,,,,,,,,,,,,,,,,,,,,,,,,,,,,,,,,,,,,,,,,,,,,
1606590780.959118,3.000000,0.000000,4153.974121,4178.974121,4167.436035,4171.153809,4181.153809,4194.743652,4193.974121,4190.256348,4179.615234,4193.589844,4172.179688,4168.077148,4169.487305,4170.512695,2977.000000,4.000000,,,,0.000000,4.000000,4.000000,4.000000,4.000000,4.000000,4.000000,4.000000,4.000000,4.000000,4.000000,4.000000,4.000000,4.000000,4.000000,100.000000,,,,,,,,,,,,,,,,,,,,,,,,,,,,,,,,,,,,,,,,,,,,,,,,,,,,,,,,,,,,,,,,,,,,,,,,,,,,,,,,,,,,,,,,,,,,,,,,,,,,,,,,,,,,,,,,,
1606590780.967017,4.000000,0.000000,4153.589844,4173.333496,4165.512695,4166.410156,4178.846191,4195.000000,4194.743652,4194.487305,4179.743652,4194.743652,4170.769043,4171.410156,4172.179688,4173.461426,3586.000000,4.000000,,,,0.000000,4.000000,4.000000,4.000000,4.000000,4.000000,4.000000,4.000000,4.000000,4.000000,4.000000,4.000000,4.000000,4.000000,4.000000,100.000000,1.000000,0.000000,0.709010,-0.134033,-0.682922,-0.113831,1.005386,-0.112795,-0.062501,-36.337833,-119.032578,18.094149,,,,,,,,,,,,,,,,,,,,,,,,,,,,,,,,,,,,,,,,,,,,,,,,,,,,,,,,,,,,,,,,,,,,,,,,,,,,,,,,,,,,,,,,,,,,,,,,,,,,,
1606590780.974915,5.000000,0.000000,4153.077148,4170.256348,4157.820313,4155.641113,4174.487305,4194.871582,4193.717773,4194.871582,4174.871582,4185.512695,4167.436035,4171.666504,4169.871582,4169.615234,3039.000000,4.000000,,,,0.000000,4.000000,4.000000,4.000000,4.000000,4.000000,4.000000,4.000000,4.000000,4.000000,4.000000,4.000000,4.000000,4.000000,4.000000,100.000000,,,,,,,,,,,,,,,,,,,,,,,,,,,,,,,,,,,,,,,,,,,,,,,,,,,,,,,,,,,,,,,,,,,,,,,,,,,,,,,,,,,,,,,,,,,,,,,,,,,,,,,,,,,,,,,,,
1606590780.982614,6.000000,0.000000,4152.436035,4170.641113,4153.205078,4151.666504,4171.538574,4192.436035,4195.384766,4193.461426,4168.589844,4178.846191,4166.666504,4170.128418,4169.102539,4166.282227,2800.000000,4.000000,,,,0.000000,4.000000,4.000000,4.000000,4.000000,4.000000,4.000000,4.000000,4.000000,4.000000,4.000000,4.000000,4.000000,4.000000,4.000000,100.000000,,,,,,,,,,,,,,,,,,,,,,,,,,,,,,,,,,,,,,,,,,,,,,,,,,,,,,,,,,,,,,,,,,,,,,,,,,,,,,,,,,,,,,,,,,,,,,,,,,,,,,,,,,,,,,,,,
1606590780.990412,7.000000,0.000000,4148.589844,4168.717773,4154.743652,4153.205078,4169.615234,4188.589844,4197.820313,4198.461426,4170.512695,4183.846191,4169.487305,4171.922852,4172.563965,4170.128418,2799.000000,4.000000,,,,0.000000,4.000000,4.000000,4.000000,4.000000,4.000000,4.000000,4.000000,4.000000,4.000000,4.000000,4.000000,4.000000,4.000000,4.000000,100.000000,,,,,,,,,,,,,,,,,,,,,,,,,,,,,,,,,,,,,,,,,,,,,,,,,,,,,,,,,,,,,,,,,,,,,,,,,,,,,,,,,,,,,,,,,,,,,,,,,,,,,,,,,,,,,,,,,
1606590780.998210,8.000000,0.000000,4149.871582,4171.922852,4158.333496,4153.461426,4168.461426,4188.205078,4198.974121,4201.922852,4178.205078,4195.128418,4177.436035,4178.974121,4179.615234,4178.846191,3371.000000,4.000000,,,,0.000000,4.000000,4.000000,4.000000,4.000000,4.000000,4.000000,4.000000,4.000000,4.000000,4.000000,4.000000,4.000000,4.000000,4.000000,100.000000,2.000000,0.000000,0.709334,-0.135315,-0.682190,-0.114685,0.992691,-0.117678,-0.046876,-36.487373,-119.182114,18.393225,,,,,,,,,,,,,,,,,,,,,,,,,,,,,,,,,,,,,,,,,,,,,,,,,,,,,,,,,,,,,,,,,,,,,,,,,,,,,,,,,,,,,,,,,,,,,,,,,,,,,
1606590781.005909,9.000000,0.000000,4162.692383,4179.487305,4165.128418,4153.461426,4168.077148,4186.410156,4198.717773,4201.666504,4183.846191,4200.256348,4181.025879,4186.025879,4184.102539,4183.589844,3532.000000,4.000000,,,,0.000000,4.000000,4.000000,4.000000,4.000000,4.000000,4.000000,4.000000,4.000000,4.000000,4.000000,4.000000,4.000000,4.000000,4.000000,100.000000,,,,,,,,,,,,,,,,,,,,,,,,,,,,,,,,,,,,,,,,,,,,,,,,,,,,,,,,,,,,,,,,,,,,,,,,,,,,,,,,,,,,,,,,,,,,,,,,,,,,,,,,,,,,,,,,,
1606590781.013607,10.000000,0.000000,4173.717773,4183.333496,4175.769043,4162.563965,4171.025879,4183.717773,4197.948730,4204.230957,4191.794922,4199.615234,4185.128418,4193.461426,4186.922852,4188.717773,3165.000000,4.000000,,,,0.000000,4.000000,4.000000,4.000000,4.000000,4.000000,4.000000,4.000000,4.000000,4.000000,4.000000,4.000000,4.000000,4.000000,4.000000,100.000000,,,,,,,,,,,,,,,,,,,,,,,,,,,,,,,,,,,,,,,,,,,,,,,,,,,,,,,,,,,,,,,,,,,,,,,,,,,,,,,,,,,,,,,,,,,,,,,,,,,,,,,,,,,,,,,,,
1606590781.021205,11.000000,0.000000,4174.743652,4183.333496,4182.948730,4172.563965,4172.179688,4185.128418,4198.717773,4204.743652,4196.922852,4202.307617,4191.794922,4200.897461,4183.717773,4193.717773,3382.000000,4.000000,,,,0.000000,4.000000,4.000000,4.000000,4.000000,4.000000,4.000000,4.000000,4.000000,4.000000,4.000000,4.000000,4.000000,4.000000,4.000000,100.000000,,,,,,,,,,,,,,,,,,,,,,,,,,,,,,,,,,,,,,,,,,,,,,,,,,,,,,,,,,,,,,,,,,,,,,,,,,,,,,,,,,,,,,,,,,,,,,,,,,,,,,,,,,,,,,,,,
1606590781.028904,12.000000,0.000000,4176.282227,4183.846191,4182.051270,4173.461426,4171.794922,4185.769043,4193.846191,4201.282227,4187.563965,4204.615234,4182.820313,4195.641113,4176.025879,4188.846191,3362.000000,4.000000,,,,0.000000,4.000000,4.000000,4.000000,4.000000,4.000000,4.000000,4.000000,4.000000,4.000000,4.000000,4.000000,4.000000,4.000000,4.000000,100.000000,3.000000,0.000000,0.709516,-0.135742,-0.681885,-0.114868,1.016129,-0.128420,-0.054200,-34.842449,-119.481194,18.692303,,,,,,,,,,,,,,,,,,,,,,,,,,,,,,,,,,,,,,,,,,,,,,,,,,,,,,,,,,,,,,,,,,,,,,,,,,,,,,,,,,,,,,,,,,,,,,,,,,,,,
1606590781.036602,13.000000,0.000000,4179.743652,4185.897461,4176.410156,4171.666504,4171.025879,4183.589844,4186.922852,4198.077148,4174.871582,4195.512695,4174.615234,4184.487305,4183.589844,4183.589844,3216.000000,4.000000,,,,0.000000,4.000000,4.000000,4.000000,4.000000,4.000000,4.000000,4.000000,4.000000,4.000000,4.000000,4.000000,4.000000,4.000000,4.000000,100.000000,,,,,,,,,,,,,,,,,,,,,,,,,,,,,,,,,,,,,,,,,,,,,,,,,,,,,,,,,,,,,,,,,,,,,,,,,,,,,,,,,,,,,,,,,,,,,,,,,,,,,,,,,,,,,,,,,
1606590781.044299,14.000000,0.000000,4177.948730,4181.025879,4172.307617,4168.717773,4167.563965,4183.717773,4183.974121,4194.615234,4173.717773,4190.000000,4190.769043,4190.769043,4199.871582,4192.563965,3165.000000,4.000000,,,,0.000000,4.000000,4.000000,4.000000,4.000000,4.000000,4.000000,4.000000,4.000000,4.000000,4.000000,4.000000,4.000000,4.000000,4.000000,100.000000,,,,,,,,,,,,,,,,,,,,,,,,,,,,,,,,,,,,,,,,,,,,1.238098,1.223460,0.309840,0.252459,0.144760,0.332807,0.394247,0.129534,0.079752,0.116170,0.925403,0.711864,0.375762,0.243978,0.111755,0.797375,0.603504,0.184947,0.123454,0.136572,1.617390,1.679538,0.448166,0.117463,0.225379,0.202308,0.213602,0.138097,0.040802,0.049472,0.575037,0.293359,0.433660,0.099626,0.120277,0.863141,0.840165,0.748411,0.181033,0.113086,1.346122,1.144500,0.924174,0.304585,0.244798,2.366989,1.111446,0.821761,0.277587,0.323254,1.493920,0.985029,0.644479,0.311295,0.307605,1.222786,0.769738,0.624055,0.234837,0.268032,1.681702,0.830512,0.614252,0.236914,0.236273,1.117854,1.113465,0.869083,0.297033,0.232547
1606590781.051896,15.000000,0.000000,4177.051270,4176.410156,4174.615234,4163.077148,4166.410156,4186.153809,4185.128418,4191.282227,4175.769043,4202.179688,4200.512695,4199.871582,4199.102539,4202.820313,3382.000000,4.000000,,,,0.000000,4.000000,4.000000,4.000000,4.000000,4.000000,4.000000,4.000000,4.000000,4.000000,4.000000,4.000000,4.000000,4.000000,4.000000,100.000000,,,,,,,,,,,,,,,,,,,,,,,,,,,,,,,,,,,,,,,,,,,,,,,,,,,,,,,,,,,,,,,,,,,,,,,,,,,,,,,,,,,,,,,,,,,,,,,,,,,,,,,,,,,,,,,,,
1606590781.059594,16.000000,0.000000,4182.179688,4181.922852,4179.102539,4162.948730,4168.333496,4187.436035,4185.256348,4192.563965,4176.410156,4206.282227,4191.794922,4196.153809,4193.589844,4201.282227,0.000000,4.000000,,,,0.000000,4.000000,4.000000,4.000000,4.000000,4.000000,4.000000,4.000000,4.000000,4.000000,4.000000,4.000000,4.000000,4.000000,4.000000,100.000000,4.000000,0.000000,0.709684,-0.136292,-0.681580,-0.114990,0.995132,-0.138674,-0.041993,-35.739681,-117.985809,17.495995,,,,,,,,,,,,,,,,,,,,,,,,,,,,,,,,,,,,,,,,,,,,,,,,,,,,,,,,,,,,,,,,,,,,,,,,,,,,,,,,,,,,,,,,,,,,,,,,,,,,,
1606590781.067292,17.000000,0.000000,4183.205078,4186.153809,4180.128418,4168.589844,4170.256348,4186.666504,4183.461426,4199.487305,4186.538574,4205.128418,4194.743652,4198.077148,4201.538574,4199.615234,0.000000,4.000000,,,,0.000000,4.000000,4.000000,4.000000,4.000000,4.000000,4.000000,4.000000,4.000000,4.000000,4.000000,4.000000,4.000000,4.000000,4.000000,100.000000,,,,,,,,,,,,,,,,,,,,,,,,,,,,,,,,,,,,,,,,,,,,,,,,,,,,,,,,,,,,,,,,,,,,,,,,,,,,,,,,,,,,,,,,,,,,,,,,,,,,,,,,,,,,,,,,,
1606590781.074991,18.000000,0.000000,4182.307617,4180.384766,4180.897461,4168.333496,4170.384766,4187.179688,4184.487305,4201.794922,4192.820313,4218.461426,4202.692383,4205.256348,4206.538574,4203.333496,0.000000,4.000000,,,,0.000000,4.000000,4.000000,4.000000,4.000000,4.000000,4.000000,4.000000,4.000000,4.000000,4.000000,4.000000,4.000000,4.000000,4.000000,100.000000,,,,,,,,,,,,,,,,,,,,,,,,,,,,,,,,,,,,,,,,,,,,,,,,,,,,,,,,,,,,,,,,,,,,,,,,,,,,,,,,,,,,,,,,,,,,,,,,,,,,,,,,,,,,,,,,,
1606590781.082991,19.000000,0.000000,4181.922852,4175.897461,4181.410156,4163.461426,4169.102539,4188.333496,4186.666504,4199.358887,4187.563965,4218.461426,4196.666504,4202.051270,4196.282227,4198.974121,0.000000,4.000000,,,,0.000000,4.000000,4.000000,4.000000,4.000000,4.000000,4.000000,4.000000,4.000000,4.000000,4.000000,4.000000,4.000000,4.000000,4.000000,100.000000,,,,,,,,,,,,,,,,,,,,,,,,,,,,,,,,,,,,,,,,,,,,,,,,,,,,,,,,,,,,,,,,,,,,,,,,,,,,,,,,,,,,,,,,,,,,,,,,,,,,,,,,,,,,,,,,,
1606590781.090891,20.000000,0.000000,4174.871582,4176.025879,4177.436035,4160.897461,4169.358887,4188.077148,4184.487305,4198.205078,4183.077148,4203.461426,4190.256348,4196.794922,4192.948730,4191.410156,0.000000,4.000000,,,,0.000000,4.000000,4.000000,4.000000,4.000000,4.000000,4.000000,4.000000,4.000000,4.000000,4.000000,4.000000,4.000000,4.000000,4.000000,100.000000,5.000000,0.000000,0.709903,-0.137024,-0.681152,-0.115295,1.012223,-0.116213,-0.049317,-35.889221,-117.387657,17.795071,,,,,,,,,,,,,,,,,,,,,,,,,,,,,,,,,,,,,,,,,,,,,,,,,,,,,,,,,,,,,,,,,,,,,,,,,,,,,,,,,,,,,,,,,,,,,,,,,,,,,
1606590781.098790,21.000000,0.000000,4166.666504,4171.410156,4170.641113,4157.051270,4169.230957,4187.692383,4180.641113,4196.922852,4184.230957,4206.282227,4185.512695,4199.743652,4195.512695,4192.051270,0.000000,4.000000,,,,0.000000,4.000000,4.000000,4.000000,4.000000,4.000000,4.000000,4.000000,4.000000,4.000000,4.000000,4.000000,4.000000,4.000000,4.000000,100.000000,,,,,,,,,,,,,,,,,,,,,,,,,,,,,,,,,,,,,,,,,,,,,,,,,,,,,,,,,,,,,,,,,,,,,,,,,,,,,,,,,,,,,,,,,,,,,,,,,,,,,,,,,,,,,,,,,
1606590781.106689,22.000000,0.000000,4167.307617,4168.461426,4169.102539,4155.128418,4169.871582,4188.333496,4180.256348,4198.846191,4184.358887,4208.846191,4187.820313,4197.820313,4193.589844,4191.025879,0.000000,4.000000,,,,0.000000,4.000000,4.000000,4.000000,4.000000,4.000000,4.000000,4.000000,4.000000,4.000000,4.000000,4.000000,4.000000,4.000000,4.000000,100.000000,,,,,,,,,,,,,,,,,,,,,,,,,,,,,,,,,,,,,,,,,,,,,,,,,,,,,,,,,,,,,,,,,,,,,,,,,,,,,,,,,,,,,,,,,,,,,,,,,,,,,,,,,,,,,,,,,
1606590781.114689,23.000000,0.000000,4170.897461,4170.256348,4169.358887,4154.871582,4175.384766,4189.358887,4180.897461,4198.846191,4183.717773,4198.717773,4194.743652,4185.769043,4191.410156,4184.487305,0.000000,4.000000,,,,0.000000,4.000000,4.000000,4.000000,4.000000,4.000000,4.000000,4.000000,4.000000,4.000000,4.000000,4.000000,4.000000,4.000000,4.000000,100.000000,,,,,,,,,,,,,,,,,,,,,,,,,,,,,,,,,,,,,,,,,,,,,,,,,,,,,,,,,,,,,,,,,,,,,,,,,,,,,,,,,,,,,,,,,,,,,,,,,,,,,,,,,,,,,,,,,
1606590781.122588,24.000000,0.000000,4168.077148,4172.307617,4168.205078,4157.563965,4180.128418,4188.589844,4175.256348,4191.153809,4182.820313,4198.717773,4193.589844,4179.743652,4191.410156,4181.922852,0.000000,4.000000,,,,0.000000,4.000000,4.000000,4.000000,4.000000,4.000000,4.000000,4.000000,4.000000,4.000000,4.000000,4.000000,4.000000,4.000000,4.000000,100.000000,6.000000,0.000000,0.710069,-0.137878,-0.680786,-0.115417,1.003922,-0.124025,-0.061524,-35.141529,-121.275658,18.841841,,,,,,,,,,,,,,,,,,,,,,,,,,,,,,,,,,,,,,,,,,,,,,,,,,,,,,,,,,,,,,,,,,,,,,,,,,,,,,,,,,,,,,,,,,,,,,,,,,,,,
1606590781.130487,25.000000,0.000000,4167.820313,4174.102539,4168.974121,4161.922852,4175.256348,4186.282227,4172.563965,4191.538574,4185.000000,4203.589844,4188.846191,4190.384766,4191.538574,4184.871582,0.000000,4.000000,,,,0.000000,4.000000,4.000000,4.000000,4.000000,4.000000,4.000000,4.000000,4.000000,4.000000,4.000000,4.000000,4.000000,4.000000,4.000000,100.000000,,,,,,,,,,,,,,,,,,,,,,,,,,,,,,,,,,,,,,,,,,,,,,,,,,,,,,,,,,,,,,,,,,,,,,,,,,,,,,,,,,,,,,,,,,,,,,,,,,,,,,,,,,,,,,,,,
1606590781.138385,26.000000,0.000000,4169.487305,4173.077148,4167.563965,4160.000000,4170.000000,4185.512695,4173.333496,4195.897461,4185.000000,4202.179688,4189.358887,4195.512695,4195.769043,4188.717773,0.000000,4.000000,,,,0.000000,4.000000,4.000000,4.000000,4.000000,4.000000,4.000000,4.000000,4.000000,4.000000,4.000000,4.000000,4.000000,4.000000,4.000000,100.000000,,,,,,,,,,,,,,,,,,,,,,,,,,,,,,,,,,,,,,,,,,,,,,,,,,,,,,,,,,,,,,,,,,,,,,,,,,,,,,,,,,,,,,,,,,,,,,,,,,,,,,,,,,,,,,,,,
1606590781.146383,27.000000,0.000000,4168.846191,4171.153809,4167.307617,4157.436035,4172.563965,4185.128418,4174.487305,4193.846191,4181.538574,4201.922852,4193.077148,4187.436035,4200.512695,4189.871582,0.000000,4.000000,,,,0.000000,4.000000,4.000000,4.000000,4.000000,4.000000,4.000000,4.000000,4.000000,4.000000,4.000000,4.000000,4.000000,4.000000,4.000000,100.000000,,,,,,,,,,,,,,,,,,,,,,,,,,,,,,,,,,,,,,,,,,,,,,,,,,,,,,,,,,,,,,,,,,,,,,,,,,,,,,,,,,,,,,,,,,,,,,,,,,,,,,,,,,,,,,,,,
1606590781.154181,28.000000,0.000000,4168.717773,4175.769043,4171.410156,4158.846191,4172.051270,4183.589844,4175.897461,4196.025879,4183.589844,4201.922852,4194.230957,4192.179688,4197.692383,4190.128418,0.000000,4.000000,,,,0.000000,4.000000,4.000000,4.000000,4.000000,4.000000,4.000000,4.000000,4.000000,4.000000,4.000000,4.000000,4.000000,4.000000,4.000000,100.000000,7.000000,0.000000,0.710208,-0.139404,-0.680237,-0.115967,1.011734,-0.112306,-0.041993,-36.786449,-118.583961,17.346457,,,,,,,,,,,,,,,,,,,,,,,,,,,,,,,,,,,,,,,,,,,,,,,,,,,,,,,,,,,,,,,,,,,,,,,,,,,,,,,,,,,,,,,,,,,,,,,,,,,,,
1606590781.161879,29.000000,0.000000,4171.538574,4179.358887,4172.436035,4161.922852,4167.179688,4183.461426,4177.436035,4201.153809,4185.897461,4202.179688,4193.205078,4203.077148,4195.512695,4193.077148,0.000000,4.000000,,,,0.000000,4.000000,4.000000,4.000000,4.000000,4.000000,4.000000,4.000000,4.000000,4.000000,4.000000,4.000000,4.000000,4.000000,4.000000,100.000000,,,,,,,,,,,,,,,,,,,,,,,,,,,,,,,,,,,,,,,,,,,,,,,,,,,,,,,,,,,,,,,,,,,,,,,,,,,,,,,,,,,,,,,,,,,,,,,,,,,,,,,,,,,,,,,,,
1606590781.169778,30.000000,0.000000,4170.128418,4173.589844,4168.461426,4157.692383,4167.692383,4185.897461,4177.051270,4196.025879,4179.615234,4195.641113,4184.230957,4195.128418,4193.589844,4187.692383,0.000000,4.000000,,,,0.000000,4.000000,4.000000,4.000000,4.000000,4.000000,4.000000,4.000000,4.000000,4.000000,4.000000,4.000000,4.000000,4.000000,4.000000,100.000000,,,,,,,,,,,,,,,,,,,,,,,,,,,,,,,,,,,,,,,,,,,,1.188757,1.071038,0.301897,0.265291,0.140682,0.415249,0.471078,0.129249,0.077816,0.125302,0.861651,0.608555,0.288702,0.247538,0.108121,0.759019,0.603690,0.186622,0.114645,0.129739,1.678690,1.684724,0.503906,0.090581,0.254069,0.187603,0.190761,0.189391,0.038573,0.063996,0.547029,0.259095,0.509031,0.109879,0.121696,0.838273,0.737857,0.806675,0.205978,0.113026,1.270760,0.590101,0.938680,0.330301,0.263721,2.130660,0.712015,0.885797,0.282915,0.337506,1.408876,0.902983,0.714891,0.310007,0.279442,1.291404,0.663897,0.666789,0.285520,0.267426,1.453174,0.883174,0.687171,0.249583,0.240467,1.214100,1.113246,0.965369,0.316519,0.243783
1606590781.177376,31.000000,0.000000,4160.128418,4168.333496,4165.641113,4152.948730,4170.384766,4186.794922,4175.256348,4188.077148,4175.897461,4188.589844,4177.179688,4186.025879,4186.410156,4178.461426,0.000000,4.000000,,,,0.000000,4.000000,4.000000,4.000000,4.000000,4.000000,4.000000,4.000000,4.000000,4.000000,4.000000,4.000000,4.000000,4.000000,4.000000,100.000000,,,,,,,,,,,,,,,,,,,,,,,,,,,,,,,,,,,,,,,,,,,,,,,,,,,,,,,,,,,,,,,,,,,,,,,,,,,,,,,,,,,,,,,,,,,,,,,,,,,,,,,,,,,,,,,,,
1606590781.185075,32.000000,0.000000,4154.102539,4169.487305,4166.282227,4153.974121,4166.410156,4184.871582,4174.358887,4188.333496,4177.051270,4193.461426,4182.948730,4187.179688,4183.461426,4180.641113,0.000000,4.000000,,,,0.000000,4.000000,4.000000,4.000000,4.000000,4.000000,4.000000,4.000000,4.000000,4.000000,4.000000,4.000000,4.000000,4.000000,4.000000,100.000000,8.000000,0.000000,0.710434,-0.140625,-0.679688,-0.116333,1.022965,-0.117189,-0.056153,-35.291065,-118.733498,17.196918,,,,,,,,,,,,,,,,,,,,,,,,,,,,,,,,,,,,,,,,,,,,,,,,,,,,,,,,,,,,,,,,,,,,,,,,,,,,,,,,,,,,,,,,,,,,,,,,,,,,,
1606590781.192775,33.000000,0.000000,4163.846191,4170.128418,4169.871582,4154.487305,4163.717773,4184.358887,4172.436035,4193.974121,4181.153809,4200.128418,4194.230957,4187.436035,4191.410156,4187.179688,0.000000,4.000000,,,,0.000000,4.000000,4.000000,4.000000,4.000000,4.000000,4.000000,4.000000,4.000000,4.000000,4.000000,4.000000,4.000000,4.000000,4.000000,100.000000,,,,,,,,,,,,,,,,,,,,,,,,,,,,,,,,,,,,,,,,,,,,,,,,,,,,,,,,,,,,,,,,,,,,,,,,,,,,,,,,,,,,,,,,,,,,,,,,,,,,,,,,,,,,,,,,,
1606590781.200673,34.000000,0.000000,4172.179688,4170.000000,4170.512695,4154.871582,4168.717773,4187.436035,4176.666504,4201.794922,4185.641113,4200.000000,4197.307617,4189.487305,4198.333496,4186.538574,0.000000,4.000000,,,,0.000000,4.000000,4.000000,4.000000,4.000000,4.000000,4.000000,4.000000,4.000000,4.000000,4.000000,4.000000,4.000000,4.000000,4.000000,100.000000,,,,,,,,,,,,,,,,,,,,,,,,,,,,,,,,,,,,,,,,,,,,,,,,,,,,,,,,,,,,,,,,,,,,,,,,,,,,,,,,,,,,,,,,,,,,,,,,,,,,,,,,,,,,,,,,,
