title:vishal nback trial 2, start timestamp:1606509172.719585, stop timestamp:1606509229.320494, headset type:EPOCPLUS, headset serial:4A2C14BB, headset firmware:634, channels:151, sampling rate:eeg_128;mot_32;pm_0.1;pow_8, samples:7262      , version:2.0
Timestamp,EEG.Counter,EEG.Interpolated,EEG.AF3,EEG.F7,EEG.F3,EEG.FC5,EEG.T7,EEG.P7,EEG.O1,EEG.O2,EEG.P8,EEG.T8,EEG.FC6,EEG.F4,EEG.F8,EEG.AF4,EEG.RawCq,EEG.Battery,MarkerIndex,MarkerType,MarkerValueInt,EEG.MarkerHardware,CQ.AF3,CQ.F7,CQ.F3,CQ.FC5,CQ.T7,CQ.P7,CQ.O1,CQ.O2,CQ.P8,CQ.T8,CQ.FC6,CQ.F4,CQ.F8,CQ.AF4,CQ.Overall,MOT.CounterMems,MOT.InterpolatedMems,MOT.Q0,MOT.Q1,MOT.Q2,MOT.Q3,MOT.AccX,MOT.AccY,MOT.AccZ,MOT.MagX,MOT.MagY,MOT.MagZ,PM.Engagement.IsActive,PM.Engagement.Scaled,PM.Engagement.Raw,PM.Engagement.Min,PM.Engagement.Max,PM.Excitement.IsActive,PM.Excitement.Scaled,PM.Excitement.Raw,PM.Excitement.Min,PM.Excitement.Max,PM.LongTermExcitement,PM.Stress.IsActive,PM.Stress.Scaled,PM.Stress.Raw,PM.Stress.Min,PM.Stress.Max,PM.Relaxation.IsActive,PM.Relaxation.Scaled,PM.Relaxation.Raw,PM.Relaxation.Min,PM.Relaxation.Max,PM.Interest.IsActive,PM.Interest.Scaled,PM.Interest.Raw,PM.Interest.Min,PM.Interest.Max,PM.Focus.IsActive,PM.Focus.Scaled,PM.Focus.Raw,PM.Focus.Min,PM.Focus.Max,POW.AF3.Theta,POW.AF3.Alpha,POW.AF3.BetaL,POW.AF3.BetaH,POW.AF3.Gamma,POW.F7.Theta,POW.F7.Alpha,POW.F7.BetaL,POW.F7.BetaH,POW.F7.Gamma,POW.F3.Theta,POW.F3.Alpha,POW.F3.BetaL,POW.F3.BetaH,POW.F3.Gamma,POW.FC5.Theta,POW.FC5.Alpha,POW.FC5.BetaL,POW.FC5.BetaH,POW.FC5.Gamma,POW.T7.Theta,POW.T7.Alpha,POW.T7.BetaL,POW.T7.BetaH,POW.T7.Gamma,POW.P7.Theta,POW.P7.Alpha,POW.P7.BetaL,POW.P7.BetaH,POW.P7.Gamma,POW.O1.Theta,POW.O1.Alpha,POW.O1.BetaL,POW.O1.BetaH,POW.O1.Gamma,POW.O2.Theta,POW.O2.Alpha,POW.O2.BetaL,POW.O2.BetaH,POW.O2.Gamma,POW.P8.Theta,POW.P8.Alpha,POW.P8.BetaL,POW.P8.BetaH,POW.P8.Gamma,POW.T8.Theta,POW.T8.Alpha,POW.T8.BetaL,POW.T8.BetaH,POW.T8.Gamma,POW.FC6.Theta,POW.FC6.Alpha,POW.FC6.BetaL,POW.FC6.BetaH,POW.FC6.Gamma,POW.F4.Theta,POW.F4.Alpha,POW.F4.BetaL,POW.F4.BetaH,POW.F4.Gamma,POW.F8.Theta,POW.F8.Alpha,POW.F8.BetaL,POW.F8.BetaH,POW.F8.Gamma,POW.AF4.Theta,POW.AF4.Alpha,POW.AF4.BetaL,POW.AF4.BetaH,POW.AF4.Gamma
1606509172.719585,60.000000,0.000000,4166.153809,4172.051270,4183.717773,4181.025879,4196.666504,4203.333496,4203.846191,4198.717773,4200.128418,4194.358887,4184.358887,4206.410156,4188.077148,4200.256348,0.000000,4.000000,,,,0.000000,4.000000,4.000000,4.000000,4.000000,4.000000,4.000000,4.000000,4.000000,4.000000,4.000000,4.000000,4.000000,4.000000,4.000000,100.000000,15.000000,0.000000,0.702603,-0.090027,-0.705444,0.024353,1.021500,-0.173831,-0.015625,-18.841841,-89.124893,20.785839,,,,,,,,,,,,,,,,,,,,,,,,,,,,,,,,,,,,,,,,,,,,,,,,,,,,,,,,,,,,,,,,,,,,,,,,,,,,,,,,,,,,,,,,,,,,,,,,,,,,,
1606509172.727281,61.000000,0.000000,4173.974121,4184.743652,4194.358887,4193.461426,4213.461426,4198.461426,4203.077148,4190.769043,4183.589844,4180.512695,4166.538574,4216.922852,4174.230957,4183.589844,0.000000,4.000000,,,,0.000000,4.000000,4.000000,4.000000,4.000000,4.000000,4.000000,4.000000,4.000000,4.000000,4.000000,4.000000,4.000000,4.000000,4.000000,100.000000,,,,,,,,,,,,,,,,,,,,,,,,,,,,,,,,,,,,,,,,,,,,,,,,,,,,,,,,,,,,,,,,,,,,,,,,,,,,,,,,,,,,,,,,,,,,,,,,,,,,,,,,,,,,,,,,,
1606509172.735078,62.000000,0.000000,4165.000000,4189.871582,4193.333496,4187.948730,4215.384766,4198.461426,4202.948730,4183.717773,4172.692383,4180.897461,4172.436035,4214.871582,4156.282227,4172.051270,0.000000,4.000000,,,,0.000000,4.000000,4.000000,4.000000,4.000000,4.000000,4.000000,4.000000,4.000000,4.000000,4.000000,4.000000,4.000000,4.000000,4.000000,100.000000,,,,,,,,,,,,,,,,,,,,,,,,,,,,,,,,,,,,,,,,,,,,,,,,,,,,,,,,,,,,,,,,,,,,,,,,,,,,,,,,,,,,,,,,,,,,,,,,,,,,,,,,,,,,,,,,,
1606509172.742874,63.000000,0.000000,4156.153809,4185.641113,4182.820313,4186.153809,4197.179688,4201.666504,4200.256348,4183.461426,4178.205078,4182.179688,4190.897461,4183.461426,4158.589844,4183.205078,0.000000,4.000000,,,,0.000000,4.000000,4.000000,4.000000,4.000000,4.000000,4.000000,4.000000,4.000000,4.000000,4.000000,4.000000,4.000000,4.000000,4.000000,100.000000,,,,,,,,,,,,,,,,,,,,,,,,,,,,,,,,,,,,,,,,,,,,,,,,,,,,,,,,,,,,,,,,,,,,,,,,,,,,,,,,,,,,,,,,,,,,,,,,,,,,,,,,,,,,,,,,,
1606509172.750570,64.000000,0.000000,4168.205078,4184.358887,4195.897461,4202.820313,4194.487305,4204.487305,4196.025879,4183.846191,4177.692383,4168.846191,4189.102539,4201.666504,4165.641113,4192.307617,3367.000000,4.000000,,,,0.000000,4.000000,4.000000,4.000000,4.000000,4.000000,4.000000,4.000000,4.000000,4.000000,4.000000,4.000000,4.000000,4.000000,4.000000,100.000000,16.000000,0.000000,0.702377,-0.090942,-0.705566,0.023926,0.995132,-0.173342,-0.010254,-17.196918,-90.171661,21.234455,,,,,,,,,,,,,,,,,,,,,,,,,,,,,,,,,,,,,,,,,,,,,,,,,,,,,,,,,,,,,,,,,,,,,,,,,,,,,,,,,,,,,,,,,,,,,,,,,,,,,
1606509172.758366,65.000000,0.000000,4187.563965,4189.743652,4212.948730,4213.333496,4205.512695,4207.307617,4204.358887,4203.974121,4202.948730,4191.153809,4197.307617,4251.153809,4164.230957,4192.948730,3507.000000,4.000000,,,,0.000000,4.000000,4.000000,4.000000,4.000000,4.000000,4.000000,4.000000,4.000000,4.000000,4.000000,4.000000,4.000000,4.000000,4.000000,100.000000,,,,,,,,,,,,,,,,,,,,,,,,,,,,,,,,,,,,,,,,,,,,,,,,,,,,,,,,,,,,,,,,,,,,,,,,,,,,,,,,,,,,,,,,,,,,,,,,,,,,,,,,,,,,,,,,,
1606509172.766064,66.000000,0.000000,4184.487305,4199.230957,4200.512695,4205.256348,4206.025879,4211.282227,4222.563965,4235.384766,4240.897461,4230.256348,4227.307617,4238.077148,4174.358887,4196.538574,3536.000000,4.000000,,,,0.000000,4.000000,4.000000,4.000000,4.000000,4.000000,4.000000,4.000000,4.000000,4.000000,4.000000,4.000000,4.000000,4.000000,4.000000,100.000000,,,,,,,,,,,,,,,,,,,,,,,,,,,,,,,,,,,,,,,,,,,,,,,,,,,,,,,,,,,,,,,,,,,,,,,,,,,,,,,,,,,,,,,,,,,,,,,,,,,,,,,,,,,,,,,,,
1606509172.773861,67.000000,0.000000,4176.666504,4198.974121,4202.692383,4190.897461,4201.153809,4209.871582,4216.282227,4227.820313,4226.666504,4208.717773,4228.846191,4217.563965,4192.051270,4194.743652,3423.000000,4.000000,,,,0.000000,4.000000,4.000000,4.000000,4.000000,4.000000,4.000000,4.000000,4.000000,4.000000,4.000000,4.000000,4.000000,4.000000,4.000000,100.000000,,,,,,,,,,,,,,,,,,,,,,,,,,,,,,,,,,,,,,,,,,,,,,,,,,,,,,,,,,,,,,,,,,,,,,,,,,,,,,,,,,,,,,,,,,,,,,,,,,,,,,,,,,,,,,,,,
1606509172.781658,68.000000,0.000000,4177.948730,4182.563965,4213.333496,4185.641113,4198.205078,4204.230957,4202.820313,4201.153809,4190.641113,4167.307617,4187.307617,4241.410156,4180.512695,4180.128418,3375.000000,4.000000,,,,0.000000,4.000000,4.000000,4.000000,4.000000,4.000000,4.000000,4.000000,4.000000,4.000000,4.000000,4.000000,4.000000,4.000000,4.000000,100.000000,17.000000,0.000000,0.702112,-0.091797,-0.705750,0.023010,1.014176,-0.170413,-0.017578,-18.841841,-90.620277,20.486763,,,,,,,,,,,,,,,,,,,,,,,,,,,,,,,,,,,,,,,,,,,,,,,,,,,,,,,,,,,,,,,,,,,,,,,,,,,,,,,,,,,,,,,,,,,,,,,,,,,,,
1606509172.789455,69.000000,0.000000,4175.000000,4171.538574,4201.538574,4183.846191,4195.000000,4201.922852,4210.641113,4207.179688,4192.692383,4171.153809,4159.230957,4242.820313,4152.051270,4171.922852,3258.000000,4.000000,,,,0.000000,4.000000,4.000000,4.000000,4.000000,4.000000,4.000000,4.000000,4.000000,4.000000,4.000000,4.000000,4.000000,4.000000,4.000000,100.000000,,,,,,,,,,,,,,,,,,,,,,,,,,,,,,,,,,,,,,,,,,,,,,,,,,,,,,,,,,,,,,,,,,,,,,,,,,,,,,,,,,,,,,,,,,,,,,,,,,,,,,,,,,,,,,,,,
1606509172.797252,70.000000,0.000000,4174.871582,4178.077148,4198.333496,4186.282227,4198.589844,4201.922852,4210.000000,4215.769043,4200.769043,4182.436035,4200.769043,4234.487305,4157.179688,4188.077148,2924.000000,4.000000,,,,0.000000,4.000000,4.000000,4.000000,4.000000,4.000000,4.000000,4.000000,4.000000,4.000000,4.000000,4.000000,4.000000,4.000000,4.000000,100.000000,,,,,,,,,,,,,,,,,,,,,,,,,,,,,,,,,,,,,,,,,,,,2.915568,1.922411,1.649115,0.978169,0.808519,0.932115,0.927458,0.761033,0.426467,0.864736,2.288185,1.752322,1.023954,0.953671,0.815197,0.999851,0.727076,1.057363,0.420364,0.462648,0.688608,1.463864,0.961555,0.639858,0.953923,0.664876,0.927567,0.467803,0.298006,0.202446,0.684135,1.409205,0.386151,0.271721,0.462163,0.825840,0.786145,0.658638,0.298364,0.437059,1.202321,2.288030,1.528130,0.795761,0.762355,1.937997,2.247872,2.821374,1.169883,1.576065,3.529858,1.879733,2.821599,0.855521,1.372531,4.288418,3.558432,5.217291,1.595783,1.473475,5.430331,1.330700,2.415468,0.818794,1.077512,5.372251,1.297222,1.503912,0.663279,0.683800
1606509172.805050,71.000000,0.000000,4184.615234,4187.948730,4213.333496,4202.436035,4201.666504,4203.333496,4197.051270,4196.410156,4188.717773,4169.871582,4233.461426,4269.230957,4178.974121,4212.307617,2589.000000,4.000000,,,,0.000000,4.000000,4.000000,4.000000,4.000000,4.000000,4.000000,4.000000,4.000000,4.000000,4.000000,4.000000,4.000000,4.000000,4.000000,100.000000,,,,,,,,,,,,,,,,,,,,,,,,,,,,,,,,,,,,,,,,,,,,,,,,,,,,,,,,,,,,,,,,,,,,,,,,,,,,,,,,,,,,,,,,,,,,,,,,,,,,,,,,,,,,,,,,,
1606509172.812847,72.000000,0.000000,4186.282227,4188.717773,4213.461426,4208.077148,4198.589844,4199.102539,4193.974121,4178.974121,4172.307617,4150.512695,4178.846191,4263.717773,4162.692383,4200.769043,3267.000000,4.000000,,,,0.000000,4.000000,4.000000,4.000000,4.000000,4.000000,4.000000,4.000000,4.000000,4.000000,4.000000,4.000000,4.000000,4.000000,4.000000,100.000000,18.000000,0.000000,0.701758,-0.092834,-0.705994,0.022156,1.015152,-0.163088,-0.001953,-17.645533,-89.872589,21.234455,,,,,,,,,,,,,,,,,,,,,,,,,,,,,,,,,,,,,,,,,,,,,,,,,,,,,,,,,,,,,,,,,,,,,,,,,,,,,,,,,,,,,,,,,,,,,,,,,,,,,
1606509172.820644,73.000000,0.000000,4182.051270,4194.743652,4213.333496,4189.230957,4192.436035,4192.179688,4190.641113,4185.641113,4167.948730,4148.974121,4157.948730,4211.153809,4156.922852,4182.692383,3567.000000,4.000000,,,,0.000000,4.000000,4.000000,4.000000,4.000000,4.000000,4.000000,4.000000,4.000000,4.000000,4.000000,4.000000,4.000000,4.000000,4.000000,100.000000,,,,,,,,,,,,,,,,,,,,,,,,,,,,,,,,,,,,,,,,,,,,,,,,,,,,,,,,,,,,,,,,,,,,,,,,,,,,,,,,,,,,,,,,,,,,,,,,,,,,,,,,,,,,,,,,,
1606509172.828441,74.000000,0.000000,4183.846191,4201.666504,4219.615234,4183.461426,4193.077148,4195.641113,4187.692383,4193.717773,4171.538574,4161.282227,4204.487305,4227.436035,4179.871582,4192.948730,3271.000000,4.000000,,,,0.000000,4.000000,4.000000,4.000000,4.000000,4.000000,4.000000,4.000000,4.000000,4.000000,4.000000,4.000000,4.000000,4.000000,4.000000,100.000000,,,,,,,,,,,,,,,,,,,,,,,,,,,,,,,,,,,,,,,,,,,,,,,,,,,,,,,,,,,,,,,,,,,,,,,,,,,,,,,,,,,,,,,,,,,,,,,,,,,,,,,,,,,,,,,,,
1606509172.836239,75.000000,0.000000,4184.743652,4200.512695,4210.897461,4204.487305,4209.487305,4198.717773,4190.128418,4192.051270,4176.025879,4167.051270,4220.000000,4252.179688,4189.102539,4197.820313,3318.000000,4.000000,,,,0.000000,4.000000,4.000000,4.000000,4.000000,4.000000,4.000000,4.000000,4.000000,4.000000,4.000000,4.000000,4.000000,4.000000,4.000000,100.000000,,,,,,,,,,,,,,,,,,,,,,,,,,,,,,,,,,,,,,,,,,,,,,,,,,,,,,,,,,,,,,,,,,,,,,,,,,,,,,,,,,,,,,,,,,,,,,,,,,,,,,,,,,,,,,,,,
1606509172.843936,76.000000,0.000000,4193.077148,4204.743652,4214.871582,4206.282227,4215.769043,4196.410156,4197.051270,4196.410156,4187.307617,4170.256348,4208.205078,4240.769043,4188.461426,4202.307617,3350.000000,4.000000,,,,0.000000,4.000000,4.000000,4.000000,4.000000,4.000000,4.000000,4.000000,4.000000,4.000000,4.000000,4.000000,4.000000,4.000000,4.000000,100.000000,19.000000,0.000000,0.701162,-0.093872,-0.706482,0.021057,1.003433,-0.174807,-0.012696,-19.439995,-90.321205,20.636301,,,,,,,,,,,,,,,,,,,,,,,,,,,,,,,,,,,,,,,,,,,,,,,,,,,,,,,,,,,,,,,,,,,,,,,,,,,,,,,,,,,,,,,,,,,,,,,,,,,,,
1606509172.851733,77.000000,0.000000,4196.794922,4208.205078,4232.051270,4184.358887,4202.051270,4199.743652,4211.666504,4209.743652,4199.743652,4171.153809,4227.563965,4233.846191,4201.794922,4218.589844,3322.000000,4.000000,,,,0.000000,4.000000,4.000000,4.000000,4.000000,4.000000,4.000000,4.000000,4.000000,4.000000,4.000000,4.000000,4.000000,4.000000,4.000000,100.000000,,,,,,,,,,,,,,,,,,,,,,,,,,,,,,,,,,,,,,,,,,,,,,,,,,,,,,,,,,,,,,,,,,,,,,,,,,,,,,,,,,,,,,,,,,,,,,,,,,,,,,,,,,,,,,,,,
1606509172.859530,78.000000,0.000000,4187.179688,4203.589844,4223.333496,4190.000000,4196.794922,4198.846191,4210.384766,4220.769043,4212.051270,4174.615234,4234.102539,4232.307617,4217.820313,4211.025879,3271.000000,4.000000,,,,0.000000,4.000000,4.000000,4.000000,4.000000,4.000000,4.000000,4.000000,4.000000,4.000000,4.000000,4.000000,4.000000,4.000000,4.000000,100.000000,,,,,,,,,,,,,,,,,,,,,,,,,,,,,,,,,,,,,,,,,,,,,,,,,,,,,,,,,,,,,,,,,,,,,,,,,,,,,,,,,,,,,,,,,,,,,,,,,,,,,,,,,,,,,,,,,
1606509172.867328,79.000000,0.000000,4185.769043,4196.666504,4202.179688,4208.333496,4205.897461,4190.000000,4191.794922,4211.153809,4209.102539,4171.410156,4189.358887,4264.102539,4204.230957,4202.179688,3318.000000,4.000000,,,,0.000000,4.000000,4.000000,4.000000,4.000000,4.000000,4.000000,4.000000,4.000000,4.000000,4.000000,4.000000,4.000000,4.000000,4.000000,100.000000,,,,,,,,,,,,,,,,,,,,,,,,,,,,,,,,,,,,,,,,,,,,,,,,,,,,,,,,,,,,,,,,,,,,,,,,,,,,,,,,,,,,,,,,,,,,,,,,,,,,,,,,,,,,,,,,,
1606509172.875125,80.000000,0.000000,4198.589844,4195.000000,4206.922852,4190.384766,4206.153809,4192.563965,4195.769043,4199.487305,4198.846191,4166.153809,4184.358887,4281.410156,4185.897461,4213.077148,3350.000000,4.000000,,,,0.000000,4.000000,4.000000,4.000000,4.000000,4.000000,4.000000,4.000000,4.000000,4.000000,4.000000,4.000000,4.000000,4.000000,4.000000,100.000000,20.000000,0.000000,0.700832,-0.094604,-0.706726,0.020569,1.013687,-0.176272,-0.013184,-19.290455,-89.872589,22.281223,,,,,,,,,,,,,,,,,,,,,,,,,,,,,,,,,,,,,,,,,,,,,,,,,,,,,,,,,,,,,,,,,,,,,,,,,,,,,,,,,,,,,,,,,,,,,,,,,,,,,
1606509172.882922,81.000000,0.000000,4197.563965,4203.077148,4220.384766,4179.487305,4195.641113,4201.538574,4205.384766,4209.487305,4213.589844,4186.538574,4247.820313,4227.436035,4203.205078,4203.717773,3322.000000,4.000000,,,,0.000000,4.000000,4.000000,4.000000,4.000000,4.000000,4.000000,4.000000,4.000000,4.000000,4.000000,4.000000,4.000000,4.000000,4.000000,100.000000,,,,,,,,,,,,,,,,,,,,,,,,,,,,,,,,,,,,,,,,,,,,,,,,,,,,,,,,,,,,,,,,,,,,,,,,,,,,,,,,,,,,,,,,,,,,,,,,,,,,,,,,,,,,,,,,,
1606509172.890719,82.000000,0.000000,4179.615234,4203.333496,4207.820313,4195.128418,4194.102539,4202.820313,4199.615234,4213.077148,4221.794922,4191.538574,4249.871582,4206.922852,4225.000000,4190.128418,3271.000000,4.000000,,,,0.000000,4.000000,4.000000,4.000000,4.000000,4.000000,4.000000,4.000000,4.000000,4.000000,4.000000,4.000000,4.000000,4.000000,4.000000,100.000000,,,,,,,,,,,,,,,,,,,,,,,,,,,,,,,,,,,,,,,,,,,,,,,,,,,,,,,,,,,,,,,,,,,,,,,,,,,,,,,,,,,,,,,,,,,,,,,,,,,,,,,,,,,,,,,,,
1606509172.898517,83.000000,0.000000,4179.487305,4189.871582,4203.974121,4192.820313,4194.358887,4203.205078,4205.000000,4198.461426,4200.128418,4153.333496,4184.871582,4233.846191,4210.256348,4197.179688,3318.000000,4.000000,,,,0.000000,4.000000,4.000000,4.000000,4.000000,4.000000,4.000000,4.000000,4.000000,4.000000,4.000000,4.000000,4.000000,4.000000,4.000000,100.000000,,,,,,,,,,,,,,,,,,,,,,,,,,,,,,,,,,,,,,,,,,,,,,,,,,,,,,,,,,,,,,,,,,,,,,,,,,,,,,,,,,,,,,,,,,,,,,,,,,,,,,,,,,,,,,,,,
1606509172.906213,84.000000,0.000000,4189.358887,4192.179688,4217.436035,4181.666504,4193.461426,4204.487305,4210.769043,4201.410156,4198.717773,4141.282227,4191.282227,4230.512695,4200.384766,4190.769043,3350.000000,4.000000,,,,0.000000,4.000000,4.000000,4.000000,4.000000,4.000000,4.000000,4.000000,4.000000,4.000000,4.000000,4.000000,4.000000,4.000000,4.000000,100.000000,21.000000,0.000000,0.700109,-0.096497,-0.707214,0.019592,1.012223,-0.179690,-0.014160,-19.888609,-89.573509,19.140917,,,,,,,,,,,,,,,,,,,,,,,,,,,,,,,,,,,,,,,,,,,,,,,,,,,,,,,,,,,,,,,,,,,,,,,,,,,,,,,,,,,,,,,,,,,,,,,,,,,,,
1606509172.914009,85.000000,0.000000,4181.282227,4200.384766,4213.205078,4183.846191,4207.692383,4193.333496,4188.077148,4202.563965,4198.461426,4157.051270,4222.948730,4213.717773,4204.230957,4179.871582,3322.000000,4.000000,,,,0.000000,4.000000,4.000000,4.000000,4.000000,4.000000,4.000000,4.000000,4.000000,4.000000,4.000000,4.000000,4.000000,4.000000,4.000000,100.000000,,,,,,,,,,,,,,,,,,,,,,,,,,,,,,,,,,,,,,,,,,,,,,,,,,,,,,,,,,,,,,,,,,,,,,,,,,,,,,,,,,,,,,,,,,,,,,,,,,,,,,,,,,,,,,,,,
1606509172.921707,86.000000,0.000000,4163.974121,4190.769043,4193.717773,4196.025879,4225.128418,4184.102539,4175.384766,4184.743652,4163.461426,4136.922852,4183.589844,4216.153809,4189.102539,4187.179688,3271.000000,4.000000,,,,0.000000,4.000000,4.000000,4.000000,4.000000,4.000000,4.000000,4.000000,4.000000,4.000000,4.000000,4.000000,4.000000,4.000000,4.000000,100.000000,,,,,,,,,,,,,,,,,,,,,,,,,,,,,,,,,,,,,,,,,,,,2.751380,2.019686,1.384241,1.146066,0.926890,1.307951,1.043014,0.681525,0.416944,0.981241,2.167103,1.938173,0.933022,1.151734,0.930188,1.392905,0.870203,1.010693,0.418821,0.534128,0.789998,1.401961,0.878379,0.677420,0.871494,0.714149,0.952544,0.450719,0.283828,0.179548,0.733677,1.445893,0.353469,0.293370,0.440987,0.797581,0.930940,0.644800,0.338153,0.424197,1.109801,2.149728,1.419572,0.879443,0.692997,2.499778,2.458383,3.369867,1.436932,1.317295,3.888645,2.081056,2.725192,1.117831,1.407270,4.517572,4.307679,6.404392,1.936580,1.730035,5.729164,1.378588,2.403874,0.808048,1.141680,4.216595,1.436275,1.376323,0.718418,0.695664
1606509172.929504,87.000000,0.000000,4181.025879,4203.717773,4199.358887,4203.461426,4209.358887,4193.461426,4200.769043,4198.717773,4179.102539,4141.922852,4185.000000,4224.871582,4206.666504,4205.769043,3318.000000,4.000000,,,,0.000000,4.000000,4.000000,4.000000,4.000000,4.000000,4.000000,4.000000,4.000000,4.000000,4.000000,4.000000,4.000000,4.000000,4.000000,100.000000,,,,,,,,,,,,,,,,,,,,,,,,,,,,,,,,,,,,,,,,,,,,,,,,,,,,,,,,,,,,,,,,,,,,,,,,,,,,,,,,,,,,,,,,,,,,,,,,,,,,,,,,,,,,,,,,,
1606509172.937302,88.000000,0.000000,4222.436035,4227.051270,4228.077148,4190.512695,4181.794922,4205.897461,4226.666504,4229.615234,4233.846191,4191.794922,4251.282227,4252.436035,4251.410156,4224.743652,3350.000000,4.000000,,,,0.000000,4.000000,4.000000,4.000000,4.000000,4.000000,4.000000,4.000000,4.000000,4.000000,4.000000,4.000000,4.000000,4.000000,4.000000,100.000000,22.000000,0.000000,0.699196,-0.098389,-0.707886,0.018494,1.010758,-0.163088,-0.021485,-18.692303,-90.769821,19.439995,,,,,,,,,,,,,,,,,,,,,,,,,,,,,,,,,,,,,,,,,,,,,,,,,,,,,,,,,,,,,,,,,,,,,,,,,,,,,,,,,,,,,,,,,,,,,,,,,,,,,
1606509172.945099,89.000000,0.000000,4224.487305,4212.051270,4239.743652,4185.256348,4180.128418,4205.641113,4219.743652,4217.307617,4217.563965,4178.717773,4258.589844,4261.025879,4254.358887,4223.846191,3322.000000,4.000000,,,,0.000000,4.000000,4.000000,4.000000,4.000000,4.000000,4.000000,4.000000,4.000000,4.000000,4.000000,4.000000,4.000000,4.000000,4.000000,100.000000,,,,,,,,,,,,,,,,,,,,,,,,,,,,,,,,,,,,,,,,,,,,,,,,,,,,,,,,,,,,,,,,,,,,,,,,,,,,,,,,,,,,,,,,,,,,,,,,,,,,,,,,,,,,,,,,,
1606509172.952897,90.000000,0.000000,4201.153809,4196.282227,4225.256348,4206.922852,4188.333496,4198.589844,4201.025879,4194.743652,4179.487305,4134.487305,4202.948730,4227.051270,4229.487305,4196.794922,3271.000000,4.000000,,,,0.000000,4.000000,4.000000,4.000000,4.000000,4.000000,4.000000,4.000000,4.000000,4.000000,4.000000,4.000000,4.000000,4.000000,4.000000,100.000000,,,,,,,,,,,,,,,,,,,,,,,,,,,,,,,,,,,,,,,,,,,,,,,,,,,,,,,,,,,,,,,,,,,,,,,,,,,,,,,,,,,,,,,,,,,,,,,,,,,,,,,,,,,,,,,,,
1606509172.960694,91.000000,0.000000,4198.974121,4198.205078,4226.922852,4205.512695,4191.025879,4197.563965,4201.538574,4202.563965,4191.410156,4140.000000,4188.589844,4228.717773,4228.589844,4191.538574,3318.000000,4.000000,,,,0.000000,4.000000,4.000000,4.000000,4.000000,4.000000,4.000000,4.000000,4.000000,4.000000,4.000000,4.000000,4.000000,4.000000,4.000000,100.000000,,,,,,,,,,,,,,,,,,,,,,,,,,,,,,,,,,,,,,,,,,,,,,,,,,,,,,,,,,,,,,,,,,,,,,,,,,,,,,,,,,,,,,,,,,,,,,,,,,,,,,,,,,,,,,,,,
1606509172.968492,92.000000,0.000000,4211.282227,4195.512695,4240.769043,4191.153809,4193.589844,4201.025879,4207.307617,4208.077148,4199.743652,4156.282227,4217.948730,4248.589844,4239.871582,4216.410156,3350.000000,4.000000,,,,0.000000,4.000000,4.000000,4.000000,4.000000,4.000000,4.000000,4.000000,4.000000,4.000000,4.000000,4.000000,4.000000,4.000000,4.000000,100.000000,23.000000,0.000000,0.698354,-0.099731,-0.708557,0.017395,1.023941,-0.164065,-0.030274,-18.692303,-90.769821,20.636301,,,,,,,,,,,,,,,,,,,,,,,,,,,,,,,,,,,,,,,,,,,,,,,,,,,,,,,,,,,,,,,,,,,,,,,,,,,,,,,,,,,,,,,,,,,,,,,,,,,,,
1606509172.976289,93.000000,0.000000,4205.512695,4204.358887,4215.512695,4210.641113,4194.871582,4197.051270,4197.948730,4200.000000,4193.461426,4154.102539,4236.922852,4218.333496,4232.307617,4213.846191,3322.000000,4.000000,,,,0.000000,4.000000,4.000000,4.000000,4.000000,4.000000,4.000000,4.000000,4.000000,4.000000,4.000000,4.000000,4.000000,4.000000,4.000000,100.000000,,,,,,,,,,,,,,,,,,,,,,,,,,,,,,,,,,,,,,,,,,,,,,,,,,,,,,,,,,,,,,,,,,,,,,,,,,,,,,,,,,,,,,,,,,,,,,,,,,,,,,,,,,,,,,,,,
1606509172.984087,94.000000,0.000000,4198.717773,4208.077148,4208.461426,4196.025879,4187.436035,4188.205078,4190.641113,4197.948730,4191.922852,4142.563965,4225.256348,4212.179688,4223.717773,4186.153809,3271.000000,4.000000,,,,0.000000,4.000000,4.000000,4.000000,4.000000,4.000000,4.000000,4.000000,4.000000,4.000000,4.000000,4.000000,4.000000,4.000000,4.000000,100.000000,,,,,,,,,,,,,,,,,,,,,,,,,,,,,,,,,,,,,,,,,,,,,,,,,,,,,,,,,,,,,,,,,,,,,,,,,,,,,,,,,,,,,,,,,,,,,,,,,,,,,,,,,,,,,,,,,
1606509172.991884,95.000000,0.000000,4203.077148,4203.589844,4234.487305,4170.128418,4187.051270,4188.846191,4196.410156,4200.641113,4188.717773,4140.000000,4220.384766,4223.461426,4243.333496,4184.102539,3318.000000,4.000000,,,,0.000000,4.000000,4.000000,4.000000,4.000000,4.000000,4.000000,4.000000,4.000000,4.000000,4.000000,4.000000,4.000000,4.000000,4.000000,100.000000,,,,,,,,,,,,,,,,,,,,,,,,,,,,,,,,,,,,,,,,,,,,,,,,,,,,,,,,,,,,,,,,,,,,,,,,,,,,,,,,,,,,,,,,,,,,,,,,,,,,,,,,,,,,,,,,,
1606509172.999582,96.000000,0.000000,4195.384766,4215.641113,4216.538574,4202.307617,4200.000000,4197.179688,4203.717773,4204.102539,4197.307617,4152.051270,4232.307617,4214.102539,4262.436035,4207.307617,3350.000000,4.000000,,,,0.000000,4.000000,4.000000,4.000000,4.000000,4.000000,4.000000,4.000000,4.000000,4.000000,4.000000,4.000000,4.000000,4.000000,4.000000,100.000000,24.000000,0.000000,0.697673,-0.100708,-0.709106,0.016663,1.012711,-0.147951,-0.010254,-19.439995,-90.321205,19.140917,,,,,,,,,,,,,,,,,,,,,,,,,,,,,,,,,,,,,,,,,,,,,,,,,,,,,,,,,,,,,,,,,,,,,,,,,,,,,,,,,,,,,,,,,,,,,,,,,,,,,
1606509173.007379,97.000000,0.000000,4189.871582,4214.102539,4196.153809,4207.692383,4201.153809,4195.769043,4196.282227,4200.256348,4203.974121,4153.974121,4229.230957,4233.333496,4251.794922,4211.666504,3322.000000,4.000000,,,,0.000000,4.000000,4.000000,4.000000,4.000000,4.000000,4.000000,4.000000,4.000000,4.000000,4.000000,4.000000,4.000000,4.000000,4.000000,100.000000,,,,,,,,,,,,,,,,,,,,,,,,,,,,,,,,,,,,,,,,,,,,,,,,,,,,,,,,,,,,,,,,,,,,,,,,,,,,,,,,,,,,,,,,,,,,,,,,,,,,,,,,,,,,,,,,,
1606509173.015176,98.000000,0.000000,4201.282227,4201.025879,4225.128418,4182.051270,4196.538574,4188.974121,4188.717773,4200.897461,4199.230957,4152.692383,4226.410156,4251.794922,4242.692383,4197.307617,3271.000000,4.000000,,,,0.000000,4.000000,4.000000,4.000000,4.000000,4.000000,4.000000,4.000000,4.000000,4.000000,4.000000,4.000000,4.000000,4.000000,4.000000,100.000000,,,,,,,,,,,,,,,,,,,,,,,,,,,,,,,,,,,,,,,,,,,,,,,,,,,,,,,,,,,,,,,,,,,,,,,,,,,,,,,,,,,,,,,,,,,,,,,,,,,,,,,,,,,,,,,,,
1606509173.022973,99.000000,0.000000,4210.641113,4219.871582,4231.025879,4204.487305,4208.333496,4189.102539,4196.025879,4208.589844,4207.692383,4172.179688,4238.589844,4208.333496,4255.769043,4204.102539,3318.000000,4.000000,,,,0.000000,4.000000,4.000000,4.000000,4.000000,4.000000,4.000000,4.000000,4.000000,4.000000,4.000000,4.000000,4.000000,4.000000,4.000000,100.000000,,,,,,,,,,,,,,,,,,,,,,,,,,,,,,,,,,,,,,,,,,,,,,,,,,,,,,,,,,,,,,,,,,,,,,,,,,,,,,,,,,,,,,,,,,,,,,,,,,,,,,,,,,,,,,,,,
1606509173.030771,100.000000,0.000000,4196.666504,4240.128418,4201.922852,4225.384766,4213.205078,4193.333496,4199.102539,4206.153809,4216.025879,4174.487305,4243.077148,4191.282227,4258.461426,4207.692383,3350.000000,4.000000,,,,0.000000,4.000000,4.000000,4.000000,4.000000,4.000000,4.000000,4.000000,4.000000,4.000000,4.000000,4.000000,4.000000,4.000000,4.000000,100.000000,25.000000,0.000000,0.697169,-0.101257,-0.709534,0.016235,1.027359,-0.157229,-0.016602,-18.991379,-90.022125,19.439995,,,,,,,,,,,,,,,,,,,,,,,,,,,,,,,,,,,,,,,,,,,,,,,,,,,,,,,,,,,,,,,,,,,,,,,,,,,,,,,,,,,,,,,,,,,,,,,,,,,,,
1606509173.038568,101.000000,0.000000,4182.692383,4219.743652,4203.589844,4201.922852,4189.487305,4200.128418,4200.769043,4205.641113,4202.436035,4149.743652,4242.820313,4234.230957,4248.205078,4191.410156,3322.000000,4.000000,,,,0.000000,4.000000,4.000000,4.000000,4.000000,4.000000,4.000000,4.000000,4.000000,4.000000,4.000000,4.000000,4.000000,4.000000,4.000000,100.000000,,,,,,,,,,,,,,,,,,,,,,,,,,,,,,,,,,,,,,,,,,,,,,,,,,,,,,,,,,,,,,,,,,,,,,,,,,,,,,,,,,,,,,,,,,,,,,,,,,,,,,,,,,,,,,,,,
1606509173.046365,102.000000,0.000000,4188.205078,4199.102539,4196.410156,4184.102539,4176.538574,4197.692383,4207.820313,4211.025879,4199.487305,4155.384766,4248.974121,4229.871582,4248.077148,4189.871582,3271.000000,4.000000,,,,0.000000,4.000000,4.000000,4.000000,4.000000,4.000000,4.000000,4.000000,4.000000,4.000000,4.000000,4.000000,4.000000,4.000000,4.000000,100.000000,,,,,,,,,,,,,,,,,,,,,,,,,,,,,,,,,,,,,,,,,,,,3.037081,2.165720,1.038987,1.255957,1.024423,1.784539,1.288580,0.540524,0.388567,1.017643,2.456427,2.170768,0.787368,1.277258,0.992068,1.985393,1.136211,0.876914,0.401405,0.593875,0.913369,1.295825,0.737272,0.711731,0.795626,0.751843,0.888013,0.431175,0.259401,0.153745,0.739242,1.405846,0.329064,0.330601,0.430788,0.736978,1.150759,0.635099,0.413392,0.421225,0.972027,2.030623,1.276549,0.986792,0.655690,3.282147,2.610410,3.994064,1.804757,1.096670,4.126604,2.423430,2.416249,1.393369,1.409596,4.605672,4.812476,6.970717,2.197028,1.917251,6.222507,1.771726,2.249004,0.799756,1.169058,3.415565,1.881372,1.184476,0.791379,0.708643
1606509173.054162,103.000000,0.000000,4198.333496,4205.641113,4200.641113,4178.589844,4190.769043,4188.589844,4198.846191,4202.820313,4204.871582,4167.436035,4232.820313,4205.769043,4242.436035,4193.461426,3318.000000,4.000000,,,,0.000000,4.000000,4.000000,4.000000,4.000000,4.000000,4.000000,4.000000,4.000000,4.000000,4.000000,4.000000,4.000000,4.000000,4.000000,100.000000,,,,,,,,,,,,,,,,,,,,,,,,,,,,,,,,,,,,,,,,,,,,,,,,,,,,,,,,,,,,,,,,,,,,,,,,,,,,,,,,,,,,,,,,,,,,,,,,,,,,,,,,,,,,,,,,,
1606509173.061960,104.000000,0.000000,4192.307617,4216.410156,4247.692383,4177.563965,4201.025879,4185.897461,4180.897461,4194.615234,4195.512695,4156.538574,4210.128418,4214.230957,4232.051270,4180.769043,3350.000000,4.000000,,,,0.000000,4.000000,4.000000,4.000000,4.000000,4.000000,4.000000,4.000000,4.000000,4.000000,4.000000,4.000000,4.000000,4.000000,4.000000,100.000000,26.000000,0.000000,0.696858,-0.101746,-0.709778,0.015869,1.011734,-0.177737,-0.028809,-17.944611,-89.872589,21.234455,,,,,,,,,,,,,,,,,,,,,,,,,,,,,,,,,,,,,,,,,,,,,,,,,,,,,,,,,,,,,,,,,,,,,,,,,,,,,,,,,,,,,,,,,,,,,,,,,,,,,
1606509173.069656,105.000000,0.000000,4173.077148,4213.589844,4231.794922,4190.256348,4198.846191,4188.717773,4184.102539,4199.487305,4192.820313,4152.436035,4239.615234,4208.846191,4240.256348,4188.589844,3322.000000,4.000000,,,,0.000000,4.000000,4.000000,4.000000,4.000000,4.000000,4.000000,4.000000,4.000000,4.000000,4.000000,4.000000,4.000000,4.000000,4.000000,100.000000,,,,,,,,,,,,,,,,,,,,,,,,,,,,,,,,,,,,,,,,,,,,,,,,,,,,,,,,,,,,,,,,,,,,,,,,,,,,,,,,,,,,,,,,,,,,,,,,,,,,,,,,,,,,,,,,,
1606509173.077453,106.000000,0.000000,4178.077148,4208.846191,4182.051270,4191.794922,4193.461426,4192.820313,4195.000000,4199.743652,4199.487305,4155.769043,4266.410156,4208.461426,4251.794922,4207.692383,3271.000000,4.000000,,,,0.000000,4.000000,4.000000,4.000000,4.000000,4.000000,4.000000,4.000000,4.000000,4.000000,4.000000,4.000000,4.000000,4.000000,4.000000,100.000000,,,,,,,,,,,,,,,,,,,,,,,,,,,,,,,,,,,,,,,,,,,,,,,,,,,,,,,,,,,,,,,,,,,,,,,,,,,,,,,,,,,,,,,,,,,,,,,,,,,,,,,,,,,,,,,,,
1606509173.085249,107.000000,0.000000,4195.128418,4222.051270,4198.846191,4196.538574,4196.025879,4191.410156,4190.128418,4199.871582,4203.333496,4164.230957,4255.128418,4205.384766,4259.871582,4192.436035,3318.000000,4.000000,,,,0.000000,4.000000,4.000000,4.000000,4.000000,4.000000,4.000000,4.000000,4.000000,4.000000,4.000000,4.000000,4.000000,4.000000,4.000000,100.000000,,,,,,,,,,,,,,,,,,,,,,,,,,,,,,,,,,,,,,,,,,,,,,,,,,,,,,,,,,,,,,,,,,,,,,,,,,,,,,,,,,,,,,,,,,,,,,,,,,,,,,,,,,,,,,,,,
1606509173.093046,108.000000,0.000000,4188.333496,4234.358887,4215.897461,4210.897461,4202.563965,4188.077148,4183.461426,4197.563965,4194.615234,4168.846191,4248.333496,4199.871582,4268.077148,4186.410156,3350.000000,4.000000,,,,0.000000,4.000000,4.000000,4.000000,4.000000,4.000000,4.000000,4.000000,4.000000,4.000000,4.000000,4.000000,4.000000,4.000000,4.000000,100.000000,27.000000,0.000000,0.696628,-0.102112,-0.709961,0.015442,1.017105,-0.169924,-0.032715,-17.047379,-91.966125,20.935377,,,,,,,,,,,,,,,,,,,,,,,,,,,,,,,,,,,,,,,,,,,,,,,,,,,,,,,,,,,,,,,,,,,,,,,,,,,,,,,,,,,,,,,,,,,,,,,,,,,,,
1606509173.100842,109.000000,0.000000,4182.307617,4232.948730,4190.128418,4209.358887,4194.743652,4185.769043,4185.384766,4186.922852,4186.025879,4164.230957,4241.025879,4208.717773,4256.025879,4203.589844,3322.000000,4.000000,,,,0.000000,4.000000,4.000000,4.000000,4.000000,4.000000,4.000000,4.000000,4.000000,4.000000,4.000000,4.000000,4.000000,4.000000,4.000000,100.000000,,,,,,,,,,,,,,,,,,,,,,,,,,,,,,,,,,,,,,,,,,,,,,,,,,,,,,,,,,,,,,,,,,,,,,,,,,,,,,,,,,,,,,,,,,,,,,,,,,,,,,,,,,,,,,,,,
1606509173.108538,110.000000,0.000000,4190.128418,4224.102539,4195.128418,4196.538574,4192.051270,4184.230957,4185.769043,4192.179688,4190.384766,4154.102539,4228.589844,4220.769043,4232.820313,4191.538574,3271.000000,4.000000,,,,0.000000,4.000000,4.000000,4.000000,4.000000,4.000000,4.000000,4.000000,4.000000,4.000000,4.000000,4.000000,4.000000,4.000000,4.000000,100.000000,,,,,,,,,,,,,,,,,,,,,,,,,,,,,,,,,,,,,,,,,,,,,,,,,,,,,,,,,,,,,,,,,,,,,,,,,,,,,,,,,,,,,,,,,,,,,,,,,,,,,,,,,,,,,,,,,
1606509173.116334,111.000000,0.000000,4179.487305,4213.974121,4202.436035,4181.538574,4196.282227,4185.897461,4183.717773,4200.256348,4187.563965,4143.974121,4228.846191,4213.589844,4229.743652,4171.666504,3318.000000,4.000000,,,,0.000000,4.000000,4.000000,4.000000,4.000000,4.000000,4.000000,4.000000,4.000000,4.000000,4.000000,4.000000,4.000000,4.000000,4.000000,100.000000,,,,,,,,,,,,,,,,,,,,,,,,,,,,,,,,,,,,,,,,,,,,,,,,,,,,,,,,,,,,,,,,,,,,,,,,,,,,,,,,,,,,,,,,,,,,,,,,,,,,,,,,,,,,,,,,,
1606509173.124032,112.000000,0.000000,4169.358887,4218.717773,4187.307617,4180.769043,4188.974121,4187.436035,4187.307617,4195.769043,4185.256348,4153.974121,4241.153809,4194.102539,4237.692383,4187.436035,3350.000000,4.000000,,,,0.000000,4.000000,4.000000,4.000000,4.000000,4.000000,4.000000,4.000000,4.000000,4.000000,4.000000,4.000000,4.000000,4.000000,4.000000,100.000000,28.000000,0.000000,0.696364,-0.102295,-0.710205,0.014893,1.013199,-0.165530,-0.028809,-19.439995,-89.274437,19.888609,,,,,,,,,,,,,,,,,,,,,,,,,,,,,,,,,,,,,,,,,,,,,,,,,,,,,,,,,,,,,,,,,,,,,,,,,,,,,,,,,,,,,,,,,,,,,,,,,,,,,
1606509173.131829,113.000000,0.000000,4178.589844,4238.205078,4203.461426,4201.282227,4187.179688,4187.563965,4188.717773,4195.000000,4198.077148,4178.974121,4266.922852,4179.358887,4246.538574,4208.846191,3322.000000,4.000000,,,,0.000000,4.000000,4.000000,4.000000,4.000000,4.000000,4.000000,4.000000,4.000000,4.000000,4.000000,4.000000,4.000000,4.000000,4.000000,100.000000,,,,,,,,,,,,,,,,,,,,,,,,,,,,,,,,,,,,,,,,,,,,,,,,,,,,,,,,,,,,,,,,,,,,,,,,,,,,,,,,,,,,,,,,,,,,,,,,,,,,,,,,,,,,,,,,,
1606509173.139626,114.000000,0.000000,4182.692383,4240.384766,4211.666504,4209.615234,4203.077148,4189.487305,4186.794922,4201.410156,4205.000000,4182.179688,4275.000000,4183.077148,4260.128418,4202.307617,3271.000000,4.000000,,,,0.000000,4.000000,4.000000,4.000000,4.000000,4.000000,4.000000,4.000000,4.000000,4.000000,4.000000,4.000000,4.000000,4.000000,4.000000,100.000000,,,,,,,,,,,,,,,,,,,,,,,,,,,,,,,,,,,,,,,,,,,,,,,,,,,,,,,,,,,,,,,,,,,,,,,,,,,,,,,,,,,,,,,,,,,,,,,,,,,,,,,,,,,,,,,,,
1606509173.147424,115.000000,0.000000,4181.794922,4220.641113,4192.436035,4199.358887,4206.922852,4191.282227,4192.436035,4204.743652,4198.205078,4162.948730,4237.948730,4208.205078,4260.641113,4184.615234,3318.000000,4.000000,,,,0.000000,4.000000,4.000000,4.000000,4.000000,4.000000,4.000000,4.000000,4.000000,4.000000,4.000000,4.000000,4.000000,4.000000,4.000000,100.000000,,,,,,,,,,,,,,,,,,,,,,,,,,,,,,,,,,,,,,,,,,,,,,,,,,,,,,,,,,,,,,,,,,,,,,,,,,,,,,,,,,,,,,,,,,,,,,,,,,,,,,,,,,,,,,,,,
1606509173.155221,116.000000,0.000000,4184.358887,4223.974121,4200.256348,4207.051270,4198.077148,4192.820313,4198.461426,4203.717773,4200.000000,4159.871582,4219.358887,4224.615234,4246.410156,4187.179688,3350.000000,4.000000,,,,0.000000,4.000000,4.000000,4.000000,4.000000,4.000000,4.000000,4.000000,4.000000,4.000000,4.000000,4.000000,4.000000,4.000000,4.000000,100.000000,29.000000,0.000000,0.696307,-0.102295,-0.710266,0.014648,1.017594,-0.163577,-0.031250,-18.243687,-90.022125,19.888609,,,,,,,,,,,,,,,,,,,,,,,,,,,,,,,,,,,,,,,,,,,,,,,,,,,,,,,,,,,,,,,,,,,,,,,,,,,,,,,,,,,,,,,,,,,,,,,,,,,,,
1606509173.163018,117.000000,0.000000,4195.000000,4232.563965,4219.487305,4219.871582,4200.512695,4202.051270,4201.025879,4203.205078,4204.487305,4173.077148,4255.000000,4200.384766,4243.589844,4197.179688,3322.000000,4.000000,,,,0.000000,4.000000,4.000000,4.000000,4.000000,4.000000,4.000000,4.000000,4.000000,4.000000,4.000000,4.000000,4.000000,4.000000,4.000000,100.000000,,,,,,,,,,,,,,,,,,,,,,,,,,,,,,,,,,,,,,,,,,,,,,,,,,,,,,,,,,,,,,,,,,,,,,,,,,,,,,,,,,,,,,,,,,,,,,,,,,,,,,,,,,,,,,,,,
1606509173.170815,118.000000,0.000000,4200.128418,4218.333496,4205.897461,4208.333496,4204.871582,4201.282227,4196.538574,4202.179688,4203.205078,4181.410156,4271.666504,4166.410156,4247.179688,4192.179688,3271.000000,4.000000,,,,0.000000,4.000000,4.000000,4.000000,4.000000,4.000000,4.000000,4.000000,4.000000,4.000000,4.000000,4.000000,4.000000,4.000000,4.000000,100.000000,,,,,,,,,,,,,,,,,,,,,,,,,,,,,,,,,,,,,,,,,,,,3.624834,2.376356,0.700848,1.283074,1.060812,2.264522,1.627540,0.388276,0.349054,0.953442,3.044274,2.435872,0.639751,1.299600,0.979671,2.640444,1.468726,0.707576,0.373940,0.628347,1.033625,1.178024,0.588325,0.739442,0.728952,0.769011,0.761922,0.411901,0.234885,0.126062,0.705540,1.329469,0.315476,0.380242,0.423368,0.662990,1.508280,0.661057,0.514655,0.432052,0.866359,2.195660,1.193080,1.117430,0.652771,4.100772,2.840795,4.676108,2.231784,0.933908,4.210092,2.962559,2.073425,1.664605,1.420244,4.402418,4.967370,6.704062,2.332573,2.021389,6.933033,2.552627,2.066131,0.819744,1.138359,3.100081,2.621006,1.030778,0.888018,0.709076
1606509173.178613,119.000000,0.000000,4172.307617,4211.153809,4173.205078,4193.589844,4204.871582,4188.077148,4179.871582,4192.307617,4196.410156,4170.128418,4241.410156,4167.563965,4238.717773,4176.538574,3318.000000,4.000000,,,,0.000000,4.000000,4.000000,4.000000,4.000000,4.000000,4.000000,4.000000,4.000000,4.000000,4.000000,4.000000,4.000000,4.000000,4.000000,100.000000,,,,,,,,,,,,,,,,,,,,,,,,,,,,,,,,,,,,,,,,,,,,,,,,,,,,,,,,,,,,,,,,,,,,,,,,,,,,,,,,,,,,,,,,,,,,,,,,,,,,,,,,,,,,,,,,,
1606509173.186410,120.000000,0.000000,4142.563965,4215.384766,4158.205078,4193.333496,4196.538574,4188.333496,4177.948730,4184.230957,4182.563965,4150.000000,4219.102539,4174.230957,4224.871582,4162.692383,3350.000000,4.000000,,,,0.000000,4.000000,4.000000,4.000000,4.000000,4.000000,4.000000,4.000000,4.000000,4.000000,4.000000,4.000000,4.000000,4.000000,4.000000,100.000000,30.000000,0.000000,0.696040,-0.102051,-0.710571,0.014221,1.017594,-0.149905,-0.022950,-17.645533,-89.423973,21.982147,,,,,,,,,,,,,,,,,,,,,,,,,,,,,,,,,,,,,,,,,,,,,,,,,,,,,,,,,,,,,,,,,,,,,,,,,,,,,,,,,,,,,,,,,,,,,,,,,,,,,
1606509173.194107,121.000000,0.000000,4166.794922,4213.077148,4180.256348,4198.077148,4182.179688,4189.615234,4195.256348,4197.948730,4187.563965,4156.794922,4235.641113,4163.589844,4229.358887,4167.692383,3322.000000,4.000000,,,,0.000000,4.000000,4.000000,4.000000,4.000000,4.000000,4.000000,4.000000,4.000000,4.000000,4.000000,4.000000,4.000000,4.000000,4.000000,100.000000,,,,,,,,,,,,,,,,,,,,,,,,,,,,,,,,,,,,,,,,,,,,,,,,,,,,,,,,,,,,,,,,,,,,,,,,,,,,,,,,,,,,,,,,,,,,,,,,,,,,,,,,,,,,,,,,,
1606509173.201904,122.000000,0.000000,4193.974121,4213.717773,4201.538574,4196.282227,4185.512695,4185.256348,4191.153809,4206.666504,4204.871582,4176.282227,4254.743652,4171.153809,4238.461426,4183.974121,3271.000000,4.000000,,,,0.000000,4.000000,4.000000,4.000000,4.000000,4.000000,4.000000,4.000000,4.000000,4.000000,4.000000,4.000000,4.000000,4.000000,4.000000,100.000000,,,,,,,,,,,,,,,,,,,,,,,,,,,,,,,,,,,,,,,,,,,,,,,,,,,,,,,,,,,,,,,,,,,,,,,,,,,,,,,,,,,,,,,,,,,,,,,,,,,,,,,,,,,,,,,,,
1606509173.209702,123.000000,0.000000,4174.230957,4216.410156,4185.897461,4197.051270,4194.871582,4195.256348,4186.153809,4197.179688,4203.077148,4174.102539,4242.051270,4172.692383,4232.563965,4181.666504,3318.000000,4.000000,,,,0.000000,4.000000,4.000000,4.000000,4.000000,4.000000,4.000000,4.000000,4.000000,4.000000,4.000000,4.000000,4.000000,4.000000,4.000000,100.000000,,,,,,,,,,,,,,,,,,,,,,,,,,,,,,,,,,,,,,,,,,,,,,,,,,,,,,,,,,,,,,,,,,,,,,,,,,,,,,,,,,,,,,,,,,,,,,,,,,,,,,,,,,,,,,,,,
1606509173.217499,124.000000,0.000000,4159.615234,4209.871582,4176.922852,4193.974121,4186.153809,4202.948730,4204.615234,4198.717773,4195.897461,4171.410156,4224.871582,4165.128418,4230.641113,4168.589844,3350.000000,4.000000,,,,0.000000,4.000000,4.000000,4.000000,4.000000,4.000000,4.000000,4.000000,4.000000,4.000000,4.000000,4.000000,4.000000,4.000000,4.000000,100.000000,31.000000,0.000000,0.695806,-0.101074,-0.710938,0.014343,0.985855,-0.131838,-0.016602,-17.795071,-90.321205,18.393225,,,,,,,,,,,,,,,,,,,,,,,,,,,,,,,,,,,,,,,,,,,,,,,,,,,,,,,,,,,,,,,,,,,,,,,,,,,,,,,,,,,,,,,,,,,,,,,,,,,,,
1606509173.225296,125.000000,0.000000,4177.179688,4209.615234,4195.384766,4189.743652,4180.000000,4192.436035,4202.436035,4202.692383,4201.025879,4183.205078,4239.230957,4177.436035,4241.538574,4178.974121,3322.000000,4.000000,,,,0.000000,4.000000,4.000000,4.000000,4.000000,4.000000,4.000000,4.000000,4.000000,4.000000,4.000000,4.000000,4.000000,4.000000,4.000000,100.000000,,,,,,,,,,,,,,,,,,,,,,,,,,,,,,,,,,,,,,,,,,,,,,,,,,,,,,,,,,,,,,,,,,,,,,,,,,,,,,,,,,,,,,,,,,,,,,,,,,,,,,,,,,,,,,,,,
1606509173.233093,126.000000,0.000000,4188.717773,4211.025879,4195.769043,4201.922852,4187.051270,4188.589844,4190.512695,4197.563965,4202.563965,4177.692383,4253.461426,4179.487305,4241.410156,4191.666504,3271.000000,4.000000,,,,0.000000,4.000000,4.000000,4.000000,4.000000,4.000000,4.000000,4.000000,4.000000,4.000000,4.000000,4.000000,4.000000,4.000000,4.000000,100.000000,,,,,,,,,,,,,,,,,,,,,,,,,,,,,,,,,,,,,,,,,,,,,,,,,,,,,,,,,,,,,,,,,,,,,,,,,,,,,,,,,,,,,,,,,,,,,,,,,,,,,,,,,,,,,,,,,
1606509173.240891,127.000000,0.000000,4184.487305,4211.410156,4186.794922,4214.743652,4189.487305,4195.897461,4198.333496,4200.641113,4200.512695,4169.743652,4251.282227,4168.077148,4238.974121,4189.487305,53.000000,4.000000,,,,0.000000,4.000000,4.000000,4.000000,4.000000,4.000000,4.000000,4.000000,4.000000,4.000000,4.000000,4.000000,4.000000,4.000000,4.000000,100.000000,,,,,,,,,,,,,,,,,,,,,,,,,,,,,,,,,,,,,,,,,,,,,,,,,,,,,,,,,,,,,,,,,,,,,,,,,,,,,,,,,,,,,,,,,,,,,,,,,,,,,,,,,,,,,,,,,
1606509173.248688,0.000000,0.000000,4184.487305,4218.205078,4198.333496,4206.538574,4188.846191,4198.461426,4202.436035,4205.384766,4205.384766,4189.230957,4260.256348,4177.692383,4250.641113,4188.461426,3370.000000,4.000000,,,,0.000000,4.000000,4.000000,4.000000,4.000000,4.000000,4.000000,4.000000,4.000000,4.000000,4.000000,4.000000,4.000000,4.000000,4.000000,100.000000,0.000000,0.000000,0.695010,-0.099548,-0.711914,0.015137,1.027359,-0.122072,-0.031739,-17.944611,-90.171661,18.841841,,,,,,,,,,,,,,,,,,,,,,,,,,,,,,,,,,,,,,,,,,,,,,,,,,,,,,,,,,,,,,,,,,,,,,,,,,,,,,,,,,,,,,,,,,,,,,,,,,,,,
1606509173.256485,1.000000,0.000000,4189.487305,4220.897461,4204.615234,4203.333496,4190.897461,4198.846191,4197.948730,4203.077148,4205.897461,4205.256348,4264.615234,4184.615234,4250.000000,4188.461426,3487.000000,4.000000,,,,0.000000,4.000000,4.000000,4.000000,4.000000,4.000000,4.000000,4.000000,4.000000,4.000000,4.000000,4.000000,4.000000,4.000000,4.000000,100.000000,,,,,,,,,,,,,,,,,,,,,,,,,,,,,,,,,,,,,,,,,,,,,,,,,,,,,,,,,,,,,,,,,,,,,,,,,,,,,,,,,,,,,,,,,,,,,,,,,,,,,,,,,,,,,,,,,
1606509173.264183,2.000000,0.000000,4186.922852,4215.384766,4201.153809,4214.871582,4188.974121,4197.307617,4200.384766,4203.077148,4201.794922,4194.743652,4254.230957,4173.589844,4237.436035,4188.717773,3521.000000,4.000000,,,,0.000000,4.000000,4.000000,4.000000,4.000000,4.000000,4.000000,4.000000,4.000000,4.000000,4.000000,4.000000,4.000000,4.000000,4.000000,100.000000,,,,,,,,,,,,,,,,,,,,,,,,,,,,,,,,,,,,,,,,,,,,,,,,,,,,,,,,,,,,,,,,,,,,,,,,,,,,,,,,,,,,,,,,,,,,,,,,,,,,,,,,,,,,,,,,,
1606509173.271980,3.000000,0.000000,4176.025879,4206.282227,4201.025879,4206.922852,4187.692383,4192.436035,4198.333496,4203.846191,4203.589844,4184.358887,4249.102539,4167.179688,4232.692383,4187.692383,3444.000000,4.000000,,,,0.000000,4.000000,4.000000,4.000000,4.000000,4.000000,4.000000,4.000000,4.000000,4.000000,4.000000,4.000000,4.000000,4.000000,4.000000,100.000000,,,,,,,,,,,,,,,,,,,,,,,,,,,,,,,,,,,,,,,,,,,,,,,,,,,,,,,,,,,,,,,,,,,,,,,,,,,,,,,,,,,,,,,,,,,,,,,,,,,,,,,,,,,,,,,,,
1606509173.279778,4.000000,0.000000,4167.307617,4194.487305,4191.410156,4193.846191,4193.974121,4186.025879,4188.077148,4194.743652,4197.948730,4182.820313,4234.358887,4161.666504,4218.589844,4179.102539,3370.000000,4.000000,,,,0.000000,4.000000,4.000000,4.000000,4.000000,4.000000,4.000000,4.000000,4.000000,4.000000,4.000000,4.000000,4.000000,4.000000,4.000000,100.000000,1.000000,0.000000,0.693208,-0.097839,-0.713867,0.016846,0.985855,-0.131838,-0.043458,-19.290455,-89.423973,18.841841,,,,,,,,,,,,,,,,,,,,,,,,,,,,,,,,,,,,,,,,,,,,,,,,,,,,,,,,,,,,,,,,,,,,,,,,,,,,,,,,,,,,,,,,,,,,,,,,,,,,,
1606509173.287575,5.000000,0.000000,4166.794922,4192.563965,4180.128418,4200.000000,4192.692383,4190.000000,4183.974121,4186.922852,4184.743652,4192.436035,4215.641113,4151.666504,4206.410156,4169.358887,3249.000000,4.000000,,,,0.000000,4.000000,4.000000,4.000000,4.000000,4.000000,4.000000,4.000000,4.000000,4.000000,4.000000,4.000000,4.000000,4.000000,4.000000,100.000000,,,,,,,,,,,,,,,,,,,,,,,,,,,,,,,,,,,,,,,,,,,,,,,,,,,,,,,,,,,,,,,,,,,,,,,,,,,,,,,,,,,,,,,,,,,,,,,,,,,,,,,,,,,,,,,,,
1606509173.295373,6.000000,0.000000,4172.692383,4200.512695,4184.487305,4206.282227,4178.077148,4198.589844,4186.153809,4185.512695,4184.230957,4225.256348,4221.410156,4149.615234,4212.563965,4169.230957,2929.000000,4.000000,,,,0.000000,4.000000,4.000000,4.000000,4.000000,4.000000,4.000000,4.000000,4.000000,4.000000,4.000000,4.000000,4.000000,4.000000,4.000000,100.000000,,,,,,,,,,,,,,,,,,,,,,,,,,,,,,,,,,,,,,,,,,,,4.290284,2.608416,0.469851,1.229280,1.025183,2.612456,1.982899,0.286511,0.317594,0.810790,3.714563,2.668051,0.552544,1.230803,0.912376,3.176770,1.763531,0.581968,0.350470,0.646542,1.118448,1.072321,0.477506,0.759779,0.668462,0.770333,0.620851,0.391338,0.219476,0.101640,0.663069,1.272737,0.309134,0.443008,0.415338,0.595281,2.017477,0.745439,0.621097,0.459675,0.858303,2.805190,1.238322,1.264904,0.685438,4.768395,3.235506,5.299687,2.641978,0.842219,4.111876,3.655458,1.876254,1.955828,1.521447,3.929467,4.773811,5.731100,2.340425,2.080940,7.662590,3.576952,1.994193,0.902101,1.056925,3.166415,3.491155,1.012611,1.011871,0.695190
1606509173.303170,7.000000,0.000000,4167.307617,4194.743652,4184.871582,4201.794922,4178.333496,4192.307617,4185.000000,4184.743652,4185.897461,4242.948730,4233.589844,4147.820313,4210.384766,4169.871582,2600.000000,4.000000,,,,0.000000,4.000000,4.000000,4.000000,4.000000,4.000000,4.000000,4.000000,4.000000,4.000000,4.000000,4.000000,4.000000,4.000000,4.000000,100.000000,,,,,,,,,,,,,,,,,,,,,,,,,,,,,,,,,,,,,,,,,,,,,,,,,,,,,,,,,,,,,,,,,,,,,,,,,,,,,,,,,,,,,,,,,,,,,,,,,,,,,,,,,,,,,,,,,
1606509173.310967,8.000000,0.000000,4151.922852,4176.538574,4173.333496,4193.205078,4187.820313,4184.487305,4187.948730,4193.205078,4183.846191,4231.666504,4226.666504,4146.538574,4198.461426,4168.717773,3291.000000,4.000000,,,,0.000000,4.000000,4.000000,4.000000,4.000000,4.000000,4.000000,4.000000,4.000000,4.000000,4.000000,4.000000,4.000000,4.000000,4.000000,100.000000,2.000000,0.000000,0.691176,-0.098083,-0.715759,0.018555,1.008804,-0.148928,-0.058595,-17.645533,-90.171661,18.094149,,,,,,,,,,,,,,,,,,,,,,,,,,,,,,,,,,,,,,,,,,,,,,,,,,,,,,,,,,,,,,,,,,,,,,,,,,,,,,,,,,,,,,,,,,,,,,,,,,,,,
1606509173.318765,9.000000,0.000000,4157.436035,4169.358887,4173.974121,4188.077148,4179.230957,4191.666504,4198.333496,4202.179688,4188.077148,4231.282227,4217.563965,4156.025879,4194.358887,4173.205078,3583.000000,4.000000,,,,0.000000,4.000000,4.000000,4.000000,4.000000,4.000000,4.000000,4.000000,4.000000,4.000000,4.000000,4.000000,4.000000,4.000000,4.000000,100.000000,,,,,,,,,,,,,,,,,,,,,,,,,,,,,,,,,,,,,,,,,,,,,,,,,,,,,,,,,,,,,,,,,,,,,,,,,,,,,,,,,,,,,,,,,,,,,,,,,,,,,,,,,,,,,,,,,
1606509173.326562,10.000000,0.000000,4167.179688,4170.256348,4180.641113,4185.000000,4170.897461,4203.589844,4202.820313,4199.871582,4186.410156,4232.563965,4216.666504,4155.641113,4183.461426,4172.051270,3319.000000,4.000000,,,,0.000000,4.000000,4.000000,4.000000,4.000000,4.000000,4.000000,4.000000,4.000000,4.000000,4.000000,4.000000,4.000000,4.000000,4.000000,100.000000,,,,,,,,,,,,,,,,,,,,,,,,,,,,,,,,,,,,,,,,,,,,,,,,,,,,,,,,,,,,,,,,,,,,,,,,,,,,,,,,,,,,,,,,,,,,,,,,,,,,,,,,,,,,,,,,,
1606509173.334360,11.000000,0.000000,4160.512695,4167.563965,4179.230957,4183.589844,4182.436035,4204.615234,4197.692383,4202.948730,4187.307617,4217.307617,4214.230957,4149.358887,4166.282227,4163.846191,3361.000000,4.000000,,,,0.000000,4.000000,4.000000,4.000000,4.000000,4.000000,4.000000,4.000000,4.000000,4.000000,4.000000,4.000000,4.000000,4.000000,4.000000,100.000000,,,,,,,,,,,,,,,,,,,,,,,,,,,,,,,,,,,,,,,,,,,,,,,,,,,,,,,,,,,,,,,,,,,,,,,,,,,,,,,,,,,,,,,,,,,,,,,,,,,,,,,,,,,,,,,,,
1606509173.342057,12.000000,0.000000,4168.717773,4180.897461,4188.205078,4199.615234,4192.436035,4200.256348,4197.051270,4215.128418,4206.410156,4223.461426,4219.230957,4160.128418,4168.974121,4174.358887,3349.000000,4.000000,,,,0.000000,4.000000,4.000000,4.000000,4.000000,4.000000,4.000000,4.000000,4.000000,4.000000,4.000000,4.000000,4.000000,4.000000,4.000000,100.000000,3.000000,0.000000,0.689416,-0.099243,-0.717224,0.021118,0.975601,-0.154299,-0.065919,-18.991379,-91.218430,17.944611,,,,,,,,,,,,,,,,,,,,,,,,,,,,,,,,,,,,,,,,,,,,,,,,,,,,,,,,,,,,,,,,,,,,,,,,,,,,,,,,,,,,,,,,,,,,,,,,,,,,,
1606509173.349855,13.000000,0.000000,4187.436035,4197.563965,4203.077148,4219.743652,4181.282227,4198.717773,4207.436035,4221.153809,4213.333496,4245.512695,4229.871582,4172.948730,4181.282227,4193.846191,3333.000000,4.000000,,,,0.000000,4.000000,4.000000,4.000000,4.000000,4.000000,4.000000,4.000000,4.000000,4.000000,4.000000,4.000000,4.000000,4.000000,4.000000,100.000000,,,,,,,,,,,,,,,,,,,,,,,,,,,,,,,,,,,,,,,,,,,,,,,,,,,,,,,,,,,,,,,,,,,,,,,,,,,,,,,,,,,,,,,,,,,,,,,,,,,,,,,,,,,,,,,,,
1606509173.357652,14.000000,0.000000,4191.538574,4201.282227,4205.384766,4225.384766,4175.897461,4197.820313,4206.666504,4216.025879,4205.128418,4245.128418,4233.461426,4178.974121,4185.897461,4198.974121,3319.000000,4.000000,,,,0.000000,4.000000,4.000000,4.000000,4.000000,4.000000,4.000000,4.000000,4.000000,4.000000,4.000000,4.000000,4.000000,4.000000,4.000000,100.000000,,,,,,,,,,,,,,,,,,,,,,,,,,,,,,,,,,,,,,,,,,,,,,,,,,,,,,,,,,,,,,,,,,,,,,,,,,,,,,,,,,,,,,,,,,,,,,,,,,,,,,,,,,,,,,,,,
1606509173.365449,15.000000,0.000000,4203.205078,4211.410156,4210.128418,4228.717773,4185.897461,4195.000000,4190.000000,4205.897461,4207.948730,4239.871582,4232.820313,4184.871582,4180.512695,4200.512695,3361.000000,4.000000,,,,0.000000,4.000000,4.000000,4.000000,4.000000,4.000000,4.000000,4.000000,4.000000,4.000000,4.000000,4.000000,4.000000,4.000000,4.000000,100.000000,,,,,,,,,,,,,,,,,,,,,,,,,,,,,,,,,,,,,,,,,,,,,,,,,,,,,,,,,,,,,,,,,,,,,,,,,,,,,,,,,,,,,,,,,,,,,,,,,,,,,,,,,,,,,,,,,
1606509173.373246,16.000000,0.000000,4224.615234,4219.230957,4222.563965,4232.692383,4191.153809,4195.641113,4188.333496,4205.897461,4213.333496,4245.769043,4234.871582,4189.615234,4175.641113,4208.974121,0.000000,4.000000,,,,0.000000,4.000000,4.000000,4.000000,4.000000,4.000000,4.000000,4.000000,4.000000,4.000000,4.000000,4.000000,4.000000,4.000000,4.000000,100.000000,4.000000,0.000000,0.688571,-0.099792,-0.717896,0.023193,1.000015,-0.168948,-0.070802,-18.692303,-91.218430,17.495995,,,,,,,,,,,,,,,,,,,,,,,,,,,,,,,,,,,,,,,,,,,,,,,,,,,,,,,,,,,,,,,,,,,,,,,,,,,,,,,,,,,,,,,,,,,,,,,,,,,,,
1606509173.381043,17.000000,0.000000,4221.153809,4208.846191,4220.000000,4225.641113,4184.871582,4201.922852,4202.563965,4211.153809,4203.205078,4238.846191,4225.000000,4185.384766,4170.000000,4205.128418,0.000000,4.000000,,,,0.000000,4.000000,4.000000,4.000000,4.000000,4.000000,4.000000,4.000000,4.000000,4.000000,4.000000,4.000000,4.000000,4.000000,4.000000,100.000000,,,,,,,,,,,,,,,,,,,,,,,,,,,,,,,,,,,,,,,,,,,,,,,,,,,,,,,,,,,,,,,,,,,,,,,,,,,,,,,,,,,,,,,,,,,,,,,,,,,,,,,,,,,,,,,,,
1606509173.388841,18.000000,0.000000,4201.538574,4196.025879,4203.461426,4215.256348,4185.256348,4201.410156,4198.077148,4198.974121,4189.102539,4221.538574,4203.077148,4174.743652,4154.230957,4187.820313,0.000000,4.000000,,,,0.000000,4.000000,4.000000,4.000000,4.000000,4.000000,4.000000,4.000000,4.000000,4.000000,4.000000,4.000000,4.000000,4.000000,4.000000,100.000000,,,,,,,,,,,,,,,,,,,,,,,,,,,,,,,,,,,,,,,,,,,,,,,,,,,,,,,,,,,,,,,,,,,,,,,,,,,,,,,,,,,,,,,,,,,,,,,,,,,,,,,,,,,,,,,,,
1606509173.396638,19.000000,0.000000,4192.436035,4196.410156,4197.179688,4214.487305,4200.384766,4195.512695,4181.282227,4187.436035,4185.897461,4218.077148,4198.077148,4165.384766,4145.128418,4179.102539,0.000000,4.000000,,,,0.000000,4.000000,4.000000,4.000000,4.000000,4.000000,4.000000,4.000000,4.000000,4.000000,4.000000,4.000000,4.000000,4.000000,4.000000,100.000000,,,,,,,,,,,,,,,,,,,,,,,,,,,,,,,,,,,,,,,,,,,,,,,,,,,,,,,,,,,,,,,,,,,,,,,,,,,,,,,,,,,,,,,,,,,,,,,,,,,,,,,,,,,,,,,,,
1606509173.404336,20.000000,0.000000,4195.384766,4202.563965,4201.282227,4222.179688,4204.743652,4197.051270,4183.461426,4197.563965,4193.717773,4248.333496,4202.051270,4165.769043,4153.205078,4185.256348,0.000000,4.000000,,,,0.000000,4.000000,4.000000,4.000000,4.000000,4.000000,4.000000,4.000000,4.000000,4.000000,4.000000,4.000000,4.000000,4.000000,4.000000,100.000000,5.000000,0.000000,0.688464,-0.100281,-0.717896,0.024231,0.997086,-0.167483,-0.050294,-18.841841,-89.124893,17.346457,,,,,,,,,,,,,,,,,,,,,,,,,,,,,,,,,,,,,,,,,,,,,,,,,,,,,,,,,,,,,,,,,,,,,,,,,,,,,,,,,,,,,,,,,,,,,,,,,,,,,
1606509173.412133,21.000000,0.000000,4202.436035,4201.538574,4204.102539,4225.769043,4194.615234,4201.794922,4190.384766,4203.717773,4202.051270,4301.153809,4197.051270,4173.333496,4158.333496,4191.922852,0.000000,4.000000,,,,0.000000,4.000000,4.000000,4.000000,4.000000,4.000000,4.000000,4.000000,4.000000,4.000000,4.000000,4.000000,4.000000,4.000000,4.000000,100.000000,,,,,,,,,,,,,,,,,,,,,,,,,,,,,,,,,,,,,,,,,,,,,,,,,,,,,,,,,,,,,,,,,,,,,,,,,,,,,,,,,,,,,,,,,,,,,,,,,,,,,,,,,,,,,,,,,
1606509173.419931,22.000000,0.000000,4201.025879,4188.589844,4202.179688,4215.512695,4186.153809,4202.436035,4191.410156,4197.692383,4200.384766,4317.563965,4193.205078,4173.717773,4151.538574,4190.769043,0.000000,4.000000,,,,0.000000,4.000000,4.000000,4.000000,4.000000,4.000000,4.000000,4.000000,4.000000,4.000000,4.000000,4.000000,4.000000,4.000000,4.000000,100.000000,,,,,,,,,,,,,,,,,,,,,,,,,,,,,,,,,,,,,,,,,,,,4.768277,2.785059,0.409138,1.117795,0.942913,2.733301,2.259996,0.274495,0.315826,0.643680,4.206996,2.796523,0.552293,1.115823,0.850008,3.423767,1.918711,0.581892,0.351251,0.670297,1.140990,0.985476,0.429468,0.772562,0.613126,0.747690,0.506299,0.364658,0.218129,0.086458,0.627830,1.268832,0.307009,0.518324,0.410414,0.539556,2.602467,0.888939,0.705904,0.502576,0.970778,3.787481,1.425393,1.405413,0.750851,4.963588,3.748587,5.674493,2.941769,0.831206,3.849386,4.351289,1.911432,2.313890,1.783046,3.288100,4.334709,4.418979,2.256817,2.154787,8.097094,4.551541,2.113738,1.061300,0.954142,3.371911,4.229352,1.154586,1.147139,0.682280
1606509173.427728,23.000000,0.000000,4199.230957,4182.692383,4202.307617,4212.051270,4186.666504,4201.922852,4197.179688,4199.230957,4195.641113,4292.307617,4197.179688,4171.922852,4154.230957,4192.051270,0.000000,4.000000,,,,0.000000,4.000000,4.000000,4.000000,4.000000,4.000000,4.000000,4.000000,4.000000,4.000000,4.000000,4.000000,4.000000,4.000000,4.000000,100.000000,,,,,,,,,,,,,,,,,,,,,,,,,,,,,,,,,,,,,,,,,,,,,,,,,,,,,,,,,,,,,,,,,,,,,,,,,,,,,,,,,,,,,,,,,,,,,,,,,,,,,,,,,,,,,,,,,
1606509173.435525,24.000000,0.000000,4204.102539,4191.282227,4202.436035,4221.153809,4186.282227,4200.128418,4201.666504,4203.205078,4193.333496,4273.589844,4197.820313,4171.794922,4161.282227,4195.769043,0.000000,4.000000,,,,0.000000,4.000000,4.000000,4.000000,4.000000,4.000000,4.000000,4.000000,4.000000,4.000000,4.000000,4.000000,4.000000,4.000000,4.000000,100.000000,6.000000,0.000000,0.689127,-0.100525,-0.717163,0.026001,1.007828,-0.157229,-0.022461,-17.645533,-91.367973,17.346457,,,,,,,,,,,,,,,,,,,,,,,,,,,,,,,,,,,,,,,,,,,,,,,,,,,,,,,,,,,,,,,,,,,,,,,,,,,,,,,,,,,,,,,,,,,,,,,,,,,,,
1606509173.443323,25.000000,0.000000,4202.820313,4191.538574,4199.487305,4218.974121,4180.384766,4197.820313,4203.846191,4202.820313,4196.666504,4263.846191,4196.025879,4169.615234,4156.410156,4190.128418,0.000000,4.000000,,,,0.000000,4.000000,4.000000,4.000000,4.000000,4.000000,4.000000,4.000000,4.000000,4.000000,4.000000,4.000000,4.000000,4.000000,4.000000,100.000000,,,,,,,,,,,,,,,,,,,,,,,,,,,,,,,,,,,,,,,,,,,,,,,,,,,,,,,,,,,,,,,,,,,,,,,,,,,,,,,,,,,,,,,,,,,,,,,,,,,,,,,,,,,,,,,,,
1606509173.451120,26.000000,0.000000,4203.717773,4187.179688,4201.922852,4213.589844,4183.589844,4199.743652,4203.717773,4202.820313,4203.846191,4252.307617,4194.358887,4170.128418,4155.000000,4192.307617,0.000000,4.000000,,,,0.000000,4.000000,4.000000,4.000000,4.000000,4.000000,4.000000,4.000000,4.000000,4.000000,4.000000,4.000000,4.000000,4.000000,4.000000,100.000000,,,,,,,,,,,,,,,,,,,,,,,,,,,,,,,,,,,,,,,,,,,,,,,,,,,,,,,,,,,,,,,,,,,,,,,,,,,,,,,,,,,,,,,,,,,,,,,,,,,,,,,,,,,,,,,,,
1606509173.458918,27.000000,0.000000,4198.846191,4185.384766,4201.794922,4216.410156,4189.487305,4204.615234,4201.538574,4201.666504,4197.051270,4240.384766,4186.153809,4169.743652,4154.487305,4198.461426,0.000000,4.000000,,,,0.000000,4.000000,4.000000,4.000000,4.000000,4.000000,4.000000,4.000000,4.000000,4.000000,4.000000,4.000000,4.000000,4.000000,4.000000,100.000000,,,,,,,,,,,,,,,,,,,,,,,,,,,,,,,,,,,,,,,,,,,,,,,,,,,,,,,,,,,,,,,,,,,,,,,,,,,,,,,,,,,,,,,,,,,,,,,,,,,,,,,,,,,,,,,,,
1606509173.466715,28.000000,0.000000,4185.384766,4181.538574,4198.077148,4216.282227,4187.051270,4198.333496,4195.769043,4201.153809,4188.717773,4239.230957,4183.717773,4165.128418,4152.179688,4192.563965,0.000000,4.000000,,,,0.000000,4.000000,4.000000,4.000000,4.000000,4.000000,4.000000,4.000000,4.000000,4.000000,4.000000,4.000000,4.000000,4.000000,4.000000,100.000000,7.000000,0.000000,0.690889,-0.100281,-0.715454,0.027222,1.035660,-0.147463,-0.007324,-18.991379,-91.966125,17.944611,,,,,,,,,,,,,,,,,,,,,,,,,,,,,,,,,,,,,,,,,,,,,,,,,,,,,,,,,,,,,,,,,,,,,,,,,,,,,,,,,,,,,,,,,,,,,,,,,,,,,
1606509173.474513,29.000000,0.000000,4196.538574,4184.230957,4203.461426,4214.615234,4180.769043,4190.256348,4195.384766,4204.230957,4196.153809,4251.025879,4187.948730,4172.563965,4157.948730,4191.410156,0.000000,4.000000,,,,0.000000,4.000000,4.000000,4.000000,4.000000,4.000000,4.000000,4.000000,4.000000,4.000000,4.000000,4.000000,4.000000,4.000000,4.000000,100.000000,,,,,,,,,,,,,,,,,,,,,,,,,,,,,,,,,,,,,,,,,,,,,,,,,,,,,,,,,,,,,,,,,,,,,,,,,,,,,,,,,,,,,,,,,,,,,,,,,,,,,,,,,,,,,,,,,
1606509173.482210,30.000000,0.000000,4208.589844,4180.897461,4203.589844,4206.025879,4179.230957,4196.922852,4202.820313,4199.230957,4184.102539,4235.128418,4178.077148,4177.051270,4144.743652,4190.641113,0.000000,4.000000,,,,0.000000,4.000000,4.000000,4.000000,4.000000,4.000000,4.000000,4.000000,4.000000,4.000000,4.000000,4.000000,4.000000,4.000000,4.000000,100.000000,,,,,,,,,,,,,,,,,,,,,,,,,,,,,,,,,,,,,,,,,,,,,,,,,,,,,,,,,,,,,,,,,,,,,,,,,,,,,,,,,,,,,,,,,,,,,,,,,,,,,,,,,,,,,,,,,
1606509173.490008,31.000000,0.000000,4192.692383,4176.666504,4195.769043,4197.692383,4191.153809,4200.128418,4195.769043,4191.794922,4162.179688,4204.615234,4171.922852,4168.077148,4123.461426,4185.641113,0.000000,4.000000,,,,0.000000,4.000000,4.000000,4.000000,4.000000,4.000000,4.000000,4.000000,4.000000,4.000000,4.000000,4.000000,4.000000,4.000000,4.000000,100.000000,,,,,,,,,,,,,,,,,,,,,,,,,,,,,,,,,,,,,,,,,,,,,,,,,,,,,,,,,,,,,,,,,,,,,,,,,,,,,,,,,,,,,,,,,,,,,,,,,,,,,,,,,,,,,,,,,
1606509173.497805,32.000000,0.000000,4177.307617,4182.820313,4197.307617,4205.897461,4195.000000,4194.358887,4189.615234,4202.563965,4180.384766,4218.461426,4188.077148,4169.230957,4137.179688,4194.615234,0.000000,4.000000,,,,0.000000,4.000000,4.000000,4.000000,4.000000,4.000000,4.000000,4.000000,4.000000,4.000000,4.000000,4.000000,4.000000,4.000000,4.000000,100.000000,8.000000,0.000000,0.692721,-0.100281,-0.713623,0.028687,1.019547,-0.173831,-0.001465,-19.290455,-90.171661,18.542763,,,,,,,,,,,,,,,,,,,,,,,,,,,,,,,,,,,,,,,,,,,,,,,,,,,,,,,,,,,,,,,,,,,,,,,,,,,,,,,,,,,,,,,,,,,,,,,,,,,,,
1606509173.505603,33.000000,0.000000,4186.410156,4188.589844,4202.436035,4216.282227,4185.897461,4198.333496,4202.820313,4213.846191,4209.358887,4243.333496,4194.102539,4183.846191,4159.230957,4204.102539,0.000000,4.000000,,,,0.000000,4.000000,4.000000,4.000000,4.000000,4.000000,4.000000,4.000000,4.000000,4.000000,4.000000,4.000000,4.000000,4.000000,4.000000,100.000000,,,,,,,,,,,,,,,,,,,,,,,,,,,,,,,,,,,,,,,,,,,,,,,,,,,,,,,,,,,,,,,,,,,,,,,,,,,,,,,,,,,,,,,,,,,,,,,,,,,,,,,,,,,,,,,,,
1606509173.513400,34.000000,0.000000,4198.589844,4194.615234,4202.051270,4217.563965,4189.358887,4206.282227,4208.589844,4205.897461,4200.769043,4232.051270,4184.743652,4194.487305,4155.128418,4200.897461,0.000000,4.000000,,,,0.000000,4.000000,4.000000,4.000000,4.000000,4.000000,4.000000,4.000000,4.000000,4.000000,4.000000,4.000000,4.000000,4.000000,4.000000,100.000000,,,,,,,,,,,,,,,,,,,,,,,,,,,,,,,,,,,,,,,,,,,,,,,,,,,,,,,,,,,,,,,,,,,,,,,,,,,,,,,,,,,,,,,,,,,,,,,,,,,,,,,,,,,,,,,,,
1606509173.521198,35.000000,0.000000,4196.282227,4203.333496,4202.436035,4221.153809,4203.974121,4203.333496,4197.436035,4199.230957,4185.512695,4226.025879,4184.871582,4191.666504,4147.820313,4200.769043,0.000000,4.000000,,,,0.000000,4.000000,4.000000,4.000000,4.000000,4.000000,4.000000,4.000000,4.000000,4.000000,4.000000,4.000000,4.000000,4.000000,4.000000,100.000000,,,,,,,,,,,,,,,,,,,,,,,,,,,,,,,,,,,,,,,,,,,,,,,,,,,,,,,,,,,,,,,,,,,,,,,,,,,,,,,,,,,,,,,,,,,,,,,,,,,,,,,,,,,,,,,,,
1606509173.528995,36.000000,0.000000,4190.769043,4205.384766,4201.025879,4219.230957,4200.384766,4201.025879,4196.153809,4198.461426,4186.794922,4231.153809,4179.615234,4184.743652,4146.153809,4203.589844,0.000000,4.000000,,,,0.000000,4.000000,4.000000,4.000000,4.000000,4.000000,4.000000,4.000000,4.000000,4.000000,4.000000,4.000000,4.000000,4.000000,4.000000,100.000000,9.000000,0.000000,0.694063,-0.099976,-0.712280,0.030640,1.054704,-0.202152,-0.010254,-18.692303,-90.321205,19.140917,,,,,,,,,,,,,,,,,,,,,,,,,,,,,,,,,,,,,,,,,,,,,,,,,,,,,,,,,,,,,,,,,,,,,,,,,,,,,,,,,,,,,,,,,,,,,,,,,,,,,
1606509173.536793,37.000000,0.000000,4179.487305,4199.230957,4191.922852,4203.974121,4183.589844,4205.641113,4204.487305,4194.358887,4182.692383,4216.922852,4166.410156,4180.641113,4138.077148,4190.384766,0.000000,4.000000,,,,0.000000,4.000000,4.000000,4.000000,4.000000,4.000000,4.000000,4.000000,4.000000,4.000000,4.000000,4.000000,4.000000,4.000000,4.000000,100.000000,,,,,,,,,,,,,,,,,,,,,,,,,,,,,,,,,,,,,,,,,,,,,,,,,,,,,,,,,,,,,,,,,,,,,,,,,,,,,,,,,,,,,,,,,,,,,,,,,,,,,,,,,,,,,,,,,
1606509173.544590,38.000000,0.000000,4172.307617,4199.358887,4184.871582,4200.128418,4179.230957,4202.436035,4201.153809,4198.205078,4181.282227,4213.589844,4172.436035,4179.358887,4136.282227,4181.282227,0.000000,4.000000,,,,0.000000,4.000000,4.000000,4.000000,4.000000,4.000000,4.000000,4.000000,4.000000,4.000000,4.000000,4.000000,4.000000,4.000000,4.000000,100.000000,,,,,,,,,,,,,,,,,,,,,,,,,,,,,,,,,,,,,,,,,,,,4.895058,2.841829,0.497720,0.982957,0.862425,2.618181,2.404747,0.337233,0.355218,0.510379,4.340303,2.793247,0.611146,1.008539,0.859177,3.309303,1.906317,0.736055,0.386839,0.716796,1.114461,0.921600,0.443099,0.775902,0.566238,0.705949,0.436737,0.331133,0.231549,0.083576,0.606580,1.315908,0.312044,0.598681,0.414779,0.491997,3.124823,1.061964,0.744542,0.551574,1.175916,4.865871,1.695914,1.500587,0.836358,4.629984,4.193056,5.603127,3.054765,0.897547,3.472245,4.871498,2.105943,2.749228,2.204850,2.630977,3.800180,3.181041,2.132313,2.272249,7.982971,5.157901,2.381354,1.272459,0.863300,3.471785,4.599452,1.381990,1.254559,0.691397
1606509173.552388,39.000000,0.000000,4181.025879,4202.948730,4191.666504,4216.025879,4185.256348,4198.333496,4196.666504,4202.307617,4189.487305,4221.666504,4183.461426,4180.000000,4142.051270,4190.384766,0.000000,4.000000,,,,0.000000,4.000000,4.000000,4.000000,4.000000,4.000000,4.000000,4.000000,4.000000,4.000000,4.000000,4.000000,4.000000,4.000000,4.000000,100.000000,,,,,,,,,,,,,,,,,,,,,,,,,,,,,,,,,,,,,,,,,,,,,,,,,,,,,,,,,,,,,,,,,,,,,,,,,,,,,,,,,,,,,,,,,,,,,,,,,,,,,,,,,,,,,,,,,
1606509173.560084,40.000000,0.000000,4193.974121,4201.410156,4198.205078,4220.641113,4191.153809,4207.948730,4199.871582,4190.000000,4187.820313,4218.461426,4181.922852,4177.692383,4146.153809,4196.025879,0.000000,4.000000,,,,0.000000,4.000000,4.000000,4.000000,4.000000,4.000000,4.000000,4.000000,4.000000,4.000000,4.000000,4.000000,4.000000,4.000000,4.000000,100.000000,10.000000,0.000000,0.694377,-0.099182,-0.711975,0.033081,1.016617,-0.233890,-0.017090,-17.944611,-91.367973,18.542763,,,,,,,,,,,,,,,,,,,,,,,,,,,,,,,,,,,,,,,,,,,,,,,,,,,,,,,,,,,,,,,,,,,,,,,,,,,,,,,,,,,,,,,,,,,,,,,,,,,,,
1606509173.567880,41.000000,0.000000,4190.256348,4201.538574,4191.666504,4208.974121,4198.077148,4211.282227,4198.717773,4185.384766,4176.025879,4214.743652,4171.666504,4173.589844,4142.307617,4186.025879,0.000000,4.000000,,,,0.000000,4.000000,4.000000,4.000000,4.000000,4.000000,4.000000,4.000000,4.000000,4.000000,4.000000,4.000000,4.000000,4.000000,4.000000,100.000000,,,,,,,,,,,,,,,,,,,,,,,,,,,,,,,,,,,,,,,,,,,,,,,,,,,,,,,,,,,,,,,,,,,,,,,,,,,,,,,,,,,,,,,,,,,,,,,,,,,,,,,,,,,,,,,,,
1606509173.575578,42.000000,0.000000,4178.077148,4206.282227,4188.461426,4210.000000,4208.077148,4195.897461,4188.846191,4194.487305,4174.871582,4218.589844,4165.128418,4175.512695,4135.128418,4181.410156,0.000000,4.000000,,,,0.000000,4.000000,4.000000,4.000000,4.000000,4.000000,4.000000,4.000000,4.000000,4.000000,4.000000,4.000000,4.000000,4.000000,4.000000,100.000000,,,,,,,,,,,,,,,,,,,,,,,,,,,,,,,,,,,,,,,,,,,,,,,,,,,,,,,,,,,,,,,,,,,,,,,,,,,,,,,,,,,,,,,,,,,,,,,,,,,,,,,,,,,,,,,,,
1606509173.583375,43.000000,0.000000,4185.128418,4208.461426,4203.974121,4219.615234,4204.358887,4195.128418,4192.820313,4199.743652,4191.666504,4226.794922,4182.948730,4192.436035,4146.025879,4197.948730,0.000000,4.000000,,,,0.000000,4.000000,4.000000,4.000000,4.000000,4.000000,4.000000,4.000000,4.000000,4.000000,4.000000,4.000000,4.000000,4.000000,4.000000,100.000000,,,,,,,,,,,,,,,,,,,,,,,,,,,,,,,,,,,,,,,,,,,,,,,,,,,,,,,,,,,,,,,,,,,,,,,,,,,,,,,,,,,,,,,,,,,,,,,,,,,,,,,,,,,,,,,,,
1606509173.591172,44.000000,0.000000,4197.820313,4203.846191,4214.615234,4218.333496,4182.307617,4214.358887,4212.179688,4208.717773,4203.461426,4243.846191,4197.820313,4204.615234,4160.641113,4207.820313,0.000000,4.000000,,,,0.000000,4.000000,4.000000,4.000000,4.000000,4.000000,4.000000,4.000000,4.000000,4.000000,4.000000,4.000000,4.000000,4.000000,4.000000,100.000000,11.000000,0.000000,0.693620,-0.098267,-0.712708,0.035828,1.007828,-0.251469,-0.025391,-19.439995,-90.769821,18.692303,,,,,,,,,,,,,,,,,,,,,,,,,,,,,,,,,,,,,,,,,,,,,,,,,,,,,,,,,,,,,,,,,,,,,,,,,,,,,,,,,,,,,,,,,,,,,,,,,,,,,
1606509173.598970,45.000000,0.000000,4199.615234,4202.179688,4207.436035,4215.384766,4178.077148,4213.846191,4212.563965,4215.128418,4198.333496,4255.769043,4186.666504,4198.205078,4158.974121,4198.846191,0.000000,4.000000,,,,0.000000,4.000000,4.000000,4.000000,4.000000,4.000000,4.000000,4.000000,4.000000,4.000000,4.000000,4.000000,4.000000,4.000000,4.000000,100.000000,,,,,,,,,,,,,,,,,,,,,,,,,,,,,,,,,,,,,,,,,,,,,,,,,,,,,,,,,,,,,,,,,,,,,,,,,,,,,,,,,,,,,,,,,,,,,,,,,,,,,,,,,,,,,,,,,
1606509173.606767,46.000000,0.000000,4190.512695,4202.563965,4200.641113,4216.666504,4197.179688,4199.871582,4198.974121,4206.410156,4194.230957,4245.641113,4181.153809,4187.948730,4151.666504,4193.717773,0.000000,4.000000,,,,0.000000,4.000000,4.000000,4.000000,4.000000,4.000000,4.000000,4.000000,4.000000,4.000000,4.000000,4.000000,4.000000,4.000000,4.000000,100.000000,,,,,,,,,,,,,,,,,,,,,,,,,,,,,,,,,,,,,,,,,,,,,,,,,,,,,,,,,,,,,,,,,,,,,,,,,,,,,,,,,,,,,,,,,,,,,,,,,,,,,,,,,,,,,,,,,
1606509173.614564,47.000000,0.000000,4181.282227,4202.307617,4198.205078,4218.205078,4200.512695,4200.128418,4199.102539,4200.897461,4202.820313,4245.256348,4188.589844,4182.820313,4153.589844,4195.897461,0.000000,4.000000,,,,0.000000,4.000000,4.000000,4.000000,4.000000,4.000000,4.000000,4.000000,4.000000,4.000000,4.000000,4.000000,4.000000,4.000000,4.000000,100.000000,,,,,,,,,,,,,,,,,,,,,,,,,,,,,,,,,,,,,,,,,,,,,,,,,,,,,,,,,,,,,,,,,,,,,,,,,,,,,,,,,,,,,,,,,,,,,,,,,,,,,,,,,,,,,,,,,
1606509173.622361,48.000000,0.000000,4193.717773,4201.025879,4200.512695,4213.461426,4184.487305,4204.358887,4204.230957,4207.563965,4209.358887,4265.384766,4193.717773,4186.538574,4161.410156,4201.410156,0.000000,4.000000,,,,0.000000,4.000000,4.000000,4.000000,4.000000,4.000000,4.000000,4.000000,4.000000,4.000000,4.000000,4.000000,4.000000,4.000000,4.000000,100.000000,12.000000,0.000000,0.692383,-0.097534,-0.713928,0.037415,1.006363,-0.229984,-0.033204,-18.393225,-91.367973,16.598764,,,,,,,,,,,,,,,,,,,,,,,,,,,,,,,,,,,,,,,,,,,,,,,,,,,,,,,,,,,,,,,,,,,,,,,,,,,,,,,,,,,,,,,,,,,,,,,,,,,,,
1606509173.630158,49.000000,0.000000,4205.641113,4199.230957,4198.589844,4204.743652,4182.307617,4201.410156,4200.000000,4205.256348,4199.358887,4266.025879,4193.205078,4187.436035,4161.794922,4199.871582,0.000000,4.000000,,,,0.000000,4.000000,4.000000,4.000000,4.000000,4.000000,4.000000,4.000000,4.000000,4.000000,4.000000,4.000000,4.000000,4.000000,4.000000,100.000000,,,,,,,,,,,,,,,,,,,,,,,,,,,,,,,,,,,,,,,,,,,,,,,,,,,,,,,,,,,,,,,,,,,,,,,,,,,,,,,,,,,,,,,,,,,,,,,,,,,,,,,,,,,,,,,,,
1606509173.637856,50.000000,0.000000,4189.871582,4202.692383,4189.487305,4206.025879,4194.615234,4198.205078,4198.974121,4200.256348,4196.025879,4259.871582,4190.256348,4179.871582,4158.589844,4189.871582,0.000000,4.000000,,,,0.000000,4.000000,4.000000,4.000000,4.000000,4.000000,4.000000,4.000000,4.000000,4.000000,4.000000,4.000000,4.000000,4.000000,4.000000,100.000000,,,,,,,,,,,,,,,,,,,,,,,,,,,,,,,,,,,,,,,,,,,,,,,,,,,,,,,,,,,,,,,,,,,,,,,,,,,,,,,,,,,,,,,,,,,,,,,,,,,,,,,,,,,,,,,,,
1606509173.645653,51.000000,0.000000,4172.692383,4202.307617,4185.128418,4208.974121,4195.256348,4198.461426,4202.820313,4205.641113,4202.307617,4267.563965,4179.871582,4171.922852,4155.641113,4185.384766,0.000000,4.000000,,,,0.000000,4.000000,4.000000,4.000000,4.000000,4.000000,4.000000,4.000000,4.000000,4.000000,4.000000,4.000000,4.000000,4.000000,4.000000,100.000000,,,,,,,,,,,,,,,,,,,,,,,,,,,,,,,,,,,,,,,,,,,,,,,,,,,,,,,,,,,,,,,,,,,,,,,,,,,,,,,,,,,,,,,,,,,,,,,,,,,,,,,,,,,,,,,,,
1606509173.653450,52.000000,0.000000,4179.743652,4196.538574,4189.487305,4207.179688,4191.025879,4197.563965,4193.461426,4198.717773,4189.615234,4256.794922,4169.102539,4171.666504,4150.769043,4183.333496,0.000000,4.000000,,,,0.000000,4.000000,4.000000,4.000000,4.000000,4.000000,4.000000,4.000000,4.000000,4.000000,4.000000,4.000000,4.000000,4.000000,4.000000,100.000000,13.000000,0.000000,0.691342,-0.097168,-0.714905,0.038940,1.003922,-0.235843,-0.052247,-16.748302,-90.620277,18.094149,,,,,,,,,,,,,,,,,,,,,,,,,,,,,,,,,,,,,,,,,,,,,,,,,,,,,,,,,,,,,,,,,,,,,,,,,,,,,,,,,,,,,,,,,,,,,,,,,,,,,
1606509173.661248,53.000000,0.000000,4190.256348,4199.615234,4200.384766,4212.179688,4194.615234,4196.153809,4183.717773,4191.410156,4179.358887,4235.000000,4168.974121,4181.922852,4147.051270,4182.179688,0.000000,4.000000,,,,0.000000,4.000000,4.000000,4.000000,4.000000,4.000000,4.000000,4.000000,4.000000,4.000000,4.000000,4.000000,4.000000,4.000000,4.000000,100.000000,,,,,,,,,,,,,,,,,,,,,,,,,,,,,,,,,,,,,,,,,,,,,,,,,,,,,,,,,,,,,,,,,,,,,,,,,,,,,,,,,,,,,,,,,,,,,,,,,,,,,,,,,,,,,,,,,
1606509173.669045,54.000000,0.000000,4184.487305,4203.205078,4198.077148,4215.384766,4198.846191,4198.333496,4193.077148,4196.025879,4186.025879,4229.743652,4176.794922,4185.512695,4151.282227,4188.077148,0.000000,4.000000,,,,0.000000,4.000000,4.000000,4.000000,4.000000,4.000000,4.000000,4.000000,4.000000,4.000000,4.000000,4.000000,4.000000,4.000000,4.000000,100.000000,,,,,,,,,,,,,,,,,,,,,,,,,,,,,,,,,,,,,,,,,,,,4.668124,2.765027,0.674182,0.855766,0.827480,2.383682,2.422884,0.435372,0.430247,0.445850,4.089014,2.695322,0.687091,0.945490,0.969425,2.921191,1.780639,1.012772,0.453740,0.784156,1.058352,0.889364,0.496618,0.764268,0.532605,0.645442,0.407199,0.295067,0.255804,0.091884,0.590831,1.391493,0.323101,0.668005,0.429959,0.452817,3.444715,1.210881,0.724695,0.590259,1.392885,5.671796,1.950986,1.514223,0.915430,3.949488,4.405783,5.054009,2.995129,1.013049,3.023712,5.079366,2.298311,3.199393,2.686886,2.134449,3.311410,2.327809,2.006784,2.402643,7.236623,5.208967,2.682293,1.481850,0.800914,3.362975,4.503850,1.589506,1.288524,0.730718
1606509173.676842,55.000000,0.000000,4182.179688,4197.051270,4187.563965,4205.769043,4194.230957,4200.512695,4200.641113,4200.000000,4183.333496,4229.102539,4182.436035,4181.282227,4162.820313,4197.820313,0.000000,4.000000,,,,0.000000,4.000000,4.000000,4.000000,4.000000,4.000000,4.000000,4.000000,4.000000,4.000000,4.000000,4.000000,4.000000,4.000000,4.000000,100.000000,,,,,,,,,,,,,,,,,,,,,,,,,,,,,,,,,,,,,,,,,,,,,,,,,,,,,,,,,,,,,,,,,,,,,,,,,,,,,,,,,,,,,,,,,,,,,,,,,,,,,,,,,,,,,,,,,
1606509173.684639,56.000000,0.000000,4190.000000,4196.794922,4191.153809,4206.538574,4187.948730,4195.641113,4192.563965,4201.538574,4180.256348,4227.692383,4179.743652,4186.538574,4172.436035,4201.538574,0.000000,4.000000,,,,0.000000,4.000000,4.000000,4.000000,4.000000,4.000000,4.000000,4.000000,4.000000,4.000000,4.000000,4.000000,4.000000,4.000000,4.000000,100.000000,14.000000,0.000000,0.690456,-0.096802,-0.715759,0.039856,0.985367,-0.242191,-0.062989,-18.243687,-91.218430,17.495995,,,,,,,,,,,,,,,,,,,,,,,,,,,,,,,,,,,,,,,,,,,,,,,,,,,,,,,,,,,,,,,,,,,,,,,,,,,,,,,,,,,,,,,,,,,,,,,,,,,,,
1606509173.692437,57.000000,0.000000,4186.410156,4199.487305,4196.666504,4209.615234,4200.256348,4191.794922,4183.974121,4193.333496,4178.589844,4221.153809,4170.256348,4183.333496,4169.871582,4198.461426,0.000000,4.000000,,,,0.000000,4.000000,4.000000,4.000000,4.000000,4.000000,4.000000,4.000000,4.000000,4.000000,4.000000,4.000000,4.000000,4.000000,4.000000,100.000000,,,,,,,,,,,,,,,,,,,,,,,,,,,,,,,,,,,,,,,,,,,,,,,,,,,,,,,,,,,,,,,,,,,,,,,,,,,,,,,,,,,,,,,,,,,,,,,,,,,,,,,,,,,,,,,,,
1606509173.700134,58.000000,0.000000,4180.641113,4196.794922,4192.563965,4200.897461,4208.077148,4198.974121,4188.974121,4190.384766,4173.461426,4213.846191,4172.563965,4173.589844,4164.230957,4198.974121,0.000000,4.000000,,,,0.000000,4.000000,4.000000,4.000000,4.000000,4.000000,4.000000,4.000000,4.000000,4.000000,4.000000,4.000000,4.000000,4.000000,4.000000,100.000000,,,,,,,,,,,,,,,,,,,,,,,,,,,,,,,,,,,,,,,,,,,,,,,,,,,,,,,,,,,,,,,,,,,,,,,,,,,,,,,,,,,,,,,,,,,,,,,,,,,,,,,,,,,,,,,,,
1606509173.707932,59.000000,0.000000,4190.384766,4198.589844,4195.512695,4206.794922,4190.897461,4206.282227,4201.153809,4206.153809,4185.512695,4230.384766,4190.384766,4188.205078,4173.974121,4209.487305,0.000000,4.000000,,,,0.000000,4.000000,4.000000,4.000000,4.000000,4.000000,4.000000,4.000000,4.000000,4.000000,4.000000,4.000000,4.000000,4.000000,4.000000,100.000000,,,,,,,,,,,,,,,,,,,,,,,,,,,,,,,,,,,,,,,,,,,,,,,,,,,,,,,,,,,,,,,,,,,,,,,,,,,,,,,,,,,,,,,,,,,,,,,,,,,,,,,,,,,,,,,,,
1606509173.715729,60.000000,0.000000,4199.230957,4199.487305,4205.897461,4219.487305,4179.230957,4201.794922,4203.077148,4215.641113,4198.717773,4243.846191,4191.666504,4206.025879,4178.205078,4220.512695,0.000000,4.000000,,,,0.000000,4.000000,4.000000,4.000000,4.000000,4.000000,4.000000,4.000000,4.000000,4.000000,4.000000,4.000000,4.000000,4.000000,4.000000,100.000000,15.000000,0.000000,0.690046,-0.096436,-0.716187,0.040161,1.002457,-0.235355,-0.067872,-18.841841,-90.620277,17.346457,,,,,,,,,,,,,,,,,,,,,,,,,,,,,,,,,,,,,,,,,,,,,,,,,,,,,,,,,,,,,,,,,,,,,,,,,,,,,,,,,,,,,,,,,,,,,,,,,,,,,
1606509173.723527,61.000000,0.000000,4188.974121,4193.974121,4202.820313,4211.538574,4185.256348,4197.436035,4198.333496,4195.769043,4176.922852,4212.307617,4172.051270,4189.871582,4158.333496,4208.717773,0.000000,4.000000,,,,0.000000,4.000000,4.000000,4.000000,4.000000,4.000000,4.000000,4.000000,4.000000,4.000000,4.000000,4.000000,4.000000,4.000000,4.000000,100.000000,,,,,,,,,,,,,,,,,,,,,,,,,,,,,,,,,,,,,,,,,,,,,,,,,,,,,,,,,,,,,,,,,,,,,,,,,,,,,,,,,,,,,,,,,,,,,,,,,,,,,,,,,,,,,,,,,
1606509173.731324,62.000000,0.000000,4176.538574,4186.538574,4192.051270,4192.820313,4186.282227,4201.410156,4194.230957,4180.128418,4160.641113,4191.410156,4166.922852,4168.974121,4148.974121,4188.974121,0.000000,4.000000,,,,0.000000,4.000000,4.000000,4.000000,4.000000,4.000000,4.000000,4.000000,4.000000,4.000000,4.000000,4.000000,4.000000,4.000000,4.000000,100.000000,,,,,,,,,,,,,,,,,,,,,,,,,,,,,,,,,,,,,,,,,,,,,,,,,,,,,,,,,,,,,,,,,,,,,,,,,,,,,,,,,,,,,,,,,,,,,,,,,,,,,,,,,,,,,,,,,
1606509173.739121,63.000000,0.000000,4178.333496,4183.846191,4187.692383,4191.922852,4190.641113,4203.717773,4190.512695,4190.769043,4179.358887,4211.410156,4173.846191,4170.512695,4161.538574,4189.743652,0.000000,4.000000,,,,0.000000,4.000000,4.000000,4.000000,4.000000,4.000000,4.000000,4.000000,4.000000,4.000000,4.000000,4.000000,4.000000,4.000000,4.000000,100.000000,,,,,,,,,,,,,,,,,,,,,,,,,,,,,,,,,,,,,,,,,,,,,,,,,,,,,,,,,,,,,,,,,,,,,,,,,,,,,,,,,,,,,,,,,,,,,,,,,,,,,,,,,,,,,,,,,
1606509173.746919,64.000000,0.000000,4176.794922,4181.794922,4184.871582,4202.051270,4198.333496,4197.948730,4184.487305,4193.846191,4180.384766,4211.025879,4162.307617,4168.461426,4158.333496,4188.717773,3359.000000,4.000000,,,,0.000000,4.000000,4.000000,4.000000,4.000000,4.000000,4.000000,4.000000,4.000000,4.000000,4.000000,4.000000,4.000000,4.000000,4.000000,100.000000,16.000000,0.000000,0.689580,-0.096069,-0.716675,0.040344,0.996597,-0.242191,-0.063478,-19.589533,-92.414742,17.047379,,,,,,,,,,,,,,,,,,,,,,,,,,,,,,,,,,,,,,,,,,,,,,,,,,,,,,,,,,,,,,,,,,,,,,,,,,,,,,,,,,,,,,,,,,,,,,,,,,,,,
1606509173.754716,65.000000,0.000000,4175.512695,4186.922852,4186.538574,4201.153809,4189.358887,4196.410156,4183.846191,4188.205078,4168.846191,4196.666504,4156.922852,4166.922852,4149.871582,4185.641113,3473.000000,4.000000,,,,0.000000,4.000000,4.000000,4.000000,4.000000,4.000000,4.000000,4.000000,4.000000,4.000000,4.000000,4.000000,4.000000,4.000000,4.000000,100.000000,,,,,,,,,,,,,,,,,,,,,,,,,,,,,,,,,,,,,,,,,,,,,,,,,,,,,,,,,,,,,,,,,,,,,,,,,,,,,,,,,,,,,,,,,,,,,,,,,,,,,,,,,,,,,,,,,
1606509173.762514,66.000000,0.000000,4178.589844,4195.384766,4192.563965,4199.615234,4185.128418,4201.922852,4192.051270,4195.000000,4177.563965,4210.384766,4166.922852,4180.641113,4164.102539,4196.410156,3511.000000,4.000000,,,,0.000000,4.000000,4.000000,4.000000,4.000000,4.000000,4.000000,4.000000,4.000000,4.000000,4.000000,4.000000,4.000000,4.000000,4.000000,100.000000,,,,,,,,,,,,,,,,,,,,,,,,,,,,,,,,,,,,,,,,,,,,,,,,,,,,,,,,,,,,,,,,,,,,,,,,,,,,,,,,,,,,,,,,,,,,,,,,,,,,,,,,,,,,,,,,,
1606509173.770311,67.000000,0.000000,4174.615234,4186.410156,4190.641113,4201.794922,4184.487305,4203.205078,4198.333496,4203.846191,4188.589844,4221.922852,4171.922852,4190.256348,4173.461426,4201.794922,3413.000000,4.000000,,,,0.000000,4.000000,4.000000,4.000000,4.000000,4.000000,4.000000,4.000000,4.000000,4.000000,4.000000,4.000000,4.000000,4.000000,4.000000,100.000000,,,,,,,,,,,,,,,,,,,,,,,,,,,,,,,,,,,,,,,,,,,,,,,,,,,,,,,,,,,,,,,,,,,,,,,,,,,,,,,,,,,,,,,,,,,,,,,,,,,,,,,,,,,,,,,,,
1606509173.778109,68.000000,0.000000,4172.051270,4176.538574,4186.025879,4201.794922,4179.615234,4203.205078,4200.000000,4202.179688,4193.205078,4217.948730,4177.436035,4187.948730,4165.256348,4199.487305,3375.000000,4.000000,,,,0.000000,4.000000,4.000000,4.000000,4.000000,4.000000,4.000000,4.000000,4.000000,4.000000,4.000000,4.000000,4.000000,4.000000,4.000000,100.000000,17.000000,0.000000,0.689295,-0.095886,-0.716980,0.040222,1.014664,-0.231449,-0.059083,-20.187687,-90.022125,17.495995,,,,,,,,,,,,,,,,,,,,,,,,,,,,,,,,,,,,,,,,,,,,,,,,,,,,,,,,,,,,,,,,,,,,,,,,,,,,,,,,,,,,,,,,,,,,,,,,,,,,,
1606509173.785806,69.000000,0.000000,4174.615234,4187.179688,4192.820313,4200.128418,4194.358887,4200.769043,4199.230957,4203.205078,4201.153809,4230.128418,4185.641113,4185.000000,4167.051270,4201.666504,3255.000000,4.000000,,,,0.000000,4.000000,4.000000,4.000000,4.000000,4.000000,4.000000,4.000000,4.000000,4.000000,4.000000,4.000000,4.000000,4.000000,4.000000,100.000000,,,,,,,,,,,,,,,,,,,,,,,,,,,,,,,,,,,,,,,,,,,,,,,,,,,,,,,,,,,,,,,,,,,,,,,,,,,,,,,,,,,,,,,,,,,,,,,,,,,,,,,,,,,,,,,,,
1606509173.793603,70.000000,0.000000,4180.769043,4195.897461,4199.615234,4198.333496,4206.794922,4197.563965,4195.641113,4203.846191,4196.794922,4232.563965,4186.025879,4181.922852,4177.563965,4201.282227,2935.000000,4.000000,,,,0.000000,4.000000,4.000000,4.000000,4.000000,4.000000,4.000000,4.000000,4.000000,4.000000,4.000000,4.000000,4.000000,4.000000,4.000000,100.000000,,,,,,,,,,,,,,,,,,,,,,,,,,,,,,,,,,,,,,,,,,,,4.293717,2.627893,0.870656,0.756063,0.853082,2.236797,2.368142,0.528138,0.519287,0.445883,3.580137,2.593414,0.742095,0.926554,1.148797,2.430464,1.646418,1.334751,0.534861,0.849003,0.993543,0.888969,0.555623,0.735992,0.514185,0.560522,0.397932,0.261794,0.283343,0.107967,0.564955,1.464434,0.333811,0.706447,0.450663,0.429288,3.486943,1.281264,0.650942,0.601483,1.553278,5.934546,2.087672,1.430239,0.957117,3.204316,4.387784,4.196349,2.872931,1.129189,2.568987,4.946929,2.332167,3.538052,3.061000,1.883922,2.966228,1.926015,1.888150,2.464848,6.077798,4.734025,2.881706,1.628591,0.760718,3.087847,4.057005,1.699415,1.222396,0.787226
1606509173.801401,71.000000,0.000000,4195.384766,4192.692383,4203.717773,4201.153809,4190.000000,4204.871582,4197.307617,4196.666504,4186.922852,4218.333496,4186.282227,4182.307617,4182.948730,4206.025879,2594.000000,4.000000,,,,0.000000,4.000000,4.000000,4.000000,4.000000,4.000000,4.000000,4.000000,4.000000,4.000000,4.000000,4.000000,4.000000,4.000000,4.000000,100.000000,,,,,,,,,,,,,,,,,,,,,,,,,,,,,,,,,,,,,,,,,,,,,,,,,,,,,,,,,,,,,,,,,,,,,,,,,,,,,,,,,,,,,,,,,,,,,,,,,,,,,,,,,,,,,,,,,
1606509173.809198,72.000000,0.000000,4205.641113,4199.615234,4212.179688,4211.538574,4187.051270,4210.897461,4201.538574,4200.128418,4195.000000,4224.743652,4190.256348,4199.358887,4181.153809,4219.615234,3274.000000,4.000000,,,,0.000000,4.000000,4.000000,4.000000,4.000000,4.000000,4.000000,4.000000,4.000000,4.000000,4.000000,4.000000,4.000000,4.000000,4.000000,100.000000,18.000000,0.000000,0.689069,-0.095581,-0.717285,0.039368,1.002457,-0.218265,-0.054200,-18.243687,-89.274437,17.495995,,,,,,,,,,,,,,,,,,,,,,,,,,,,,,,,,,,,,,,,,,,,,,,,,,,,,,,,,,,,,,,,,,,,,,,,,,,,,,,,,,,,,,,,,,,,,,,,,,,,,
1606509173.816995,73.000000,0.000000,4190.512695,4204.743652,4209.230957,4211.666504,4200.769043,4203.589844,4196.794922,4206.153809,4194.871582,4228.974121,4186.666504,4204.487305,4173.333496,4211.538574,3551.000000,4.000000,,,,0.000000,4.000000,4.000000,4.000000,4.000000,4.000000,4.000000,4.000000,4.000000,4.000000,4.000000,4.000000,4.000000,4.000000,4.000000,100.000000,,,,,,,,,,,,,,,,,,,,,,,,,,,,,,,,,,,,,,,,,,,,,,,,,,,,,,,,,,,,,,,,,,,,,,,,,,,,,,,,,,,,,,,,,,,,,,,,,,,,,,,,,,,,,,,,,
1606509173.824792,74.000000,0.000000,4177.563965,4193.461426,4196.666504,4197.051270,4192.563965,4198.205078,4192.179688,4201.538574,4185.256348,4219.871582,4184.871582,4182.692383,4176.153809,4194.615234,3295.000000,4.000000,,,,0.000000,4.000000,4.000000,4.000000,4.000000,4.000000,4.000000,4.000000,4.000000,4.000000,4.000000,4.000000,4.000000,4.000000,4.000000,100.000000,,,,,,,,,,,,,,,,,,,,,,,,,,,,,,,,,,,,,,,,,,,,,,,,,,,,,,,,,,,,,,,,,,,,,,,,,,,,,,,,,,,,,,,,,,,,,,,,,,,,,,,,,,,,,,,,,
1606509173.832590,75.000000,0.000000,4183.205078,4193.333496,4194.615234,4196.538574,4183.077148,4198.974121,4196.794922,4198.846191,4186.922852,4216.794922,4178.333496,4175.641113,4183.205078,4198.717773,3309.000000,4.000000,,,,0.000000,4.000000,4.000000,4.000000,4.000000,4.000000,4.000000,4.000000,4.000000,4.000000,4.000000,4.000000,4.000000,4.000000,4.000000,100.000000,,,,,,,,,,,,,,,,,,,,,,,,,,,,,,,,,,,,,,,,,,,,,,,,,,,,,,,,,,,,,,,,,,,,,,,,,,,,,,,,,,,,,,,,,,,,,,,,,,,,,,,,,,,,,,,,,
1606509173.840387,76.000000,0.000000,4185.256348,4201.794922,4197.307617,4204.871582,4184.871582,4197.051270,4198.717773,4200.256348,4188.589844,4219.358887,4171.282227,4195.512695,4179.230957,4205.000000,3324.000000,4.000000,,,,0.000000,4.000000,4.000000,4.000000,4.000000,4.000000,4.000000,4.000000,4.000000,4.000000,4.000000,4.000000,4.000000,4.000000,4.000000,100.000000,19.000000,0.000000,0.688795,-0.095398,-0.717651,0.037903,1.011246,-0.192386,-0.066896,-18.841841,-89.423973,17.346457,,,,,,,,,,,,,,,,,,,,,,,,,,,,,,,,,,,,,,,,,,,,,,,,,,,,,,,,,,,,,,,,,,,,,,,,,,,,,,,,,,,,,,,,,,,,,,,,,,,,,
1606509173.848084,77.000000,0.000000,4182.051270,4192.692383,4197.692383,4195.769043,4185.641113,4199.871582,4194.743652,4200.128418,4186.666504,4218.461426,4186.282227,4200.000000,4175.512695,4201.538574,3294.000000,4.000000,,,,0.000000,4.000000,4.000000,4.000000,4.000000,4.000000,4.000000,4.000000,4.000000,4.000000,4.000000,4.000000,4.000000,4.000000,4.000000,100.000000,,,,,,,,,,,,,,,,,,,,,,,,,,,,,,,,,,,,,,,,,,,,,,,,,,,,,,,,,,,,,,,,,,,,,,,,,,,,,,,,,,,,,,,,,,,,,,,,,,,,,,,,,,,,,,,,,
1606509173.855882,78.000000,0.000000,4184.102539,4184.743652,4200.384766,4194.230957,4197.563965,4203.717773,4190.256348,4196.922852,4182.820313,4209.230957,4190.256348,4181.410156,4173.333496,4197.692383,3295.000000,4.000000,,,,0.000000,4.000000,4.000000,4.000000,4.000000,4.000000,4.000000,4.000000,4.000000,4.000000,4.000000,4.000000,4.000000,4.000000,4.000000,100.000000,,,,,,,,,,,,,,,,,,,,,,,,,,,,,,,,,,,,,,,,,,,,,,,,,,,,,,,,,,,,,,,,,,,,,,,,,,,,,,,,,,,,,,,,,,,,,,,,,,,,,,,,,,,,,,,,,
1606509173.863679,79.000000,0.000000,4186.282227,4199.230957,4198.205078,4211.153809,4198.717773,4199.743652,4189.743652,4195.897461,4179.102539,4195.128418,4171.282227,4180.512695,4169.358887,4199.615234,3309.000000,4.000000,,,,0.000000,4.000000,4.000000,4.000000,4.000000,4.000000,4.000000,4.000000,4.000000,4.000000,4.000000,4.000000,4.000000,4.000000,4.000000,100.000000,,,,,,,,,,,,,,,,,,,,,,,,,,,,,,,,,,,,,,,,,,,,,,,,,,,,,,,,,,,,,,,,,,,,,,,,,,,,,,,,,,,,,,,,,,,,,,,,,,,,,,,,,,,,,,,,,
1606509173.871476,80.000000,0.000000,4184.487305,4208.077148,4198.205078,4213.589844,4175.384766,4197.692383,4201.794922,4204.230957,4192.179688,4205.769043,4175.000000,4197.436035,4176.538574,4208.333496,3324.000000,4.000000,,,,0.000000,4.000000,4.000000,4.000000,4.000000,4.000000,4.000000,4.000000,4.000000,4.000000,4.000000,4.000000,4.000000,4.000000,4.000000,100.000000,20.000000,0.000000,0.688578,-0.095337,-0.717957,0.036194,1.006363,-0.181155,-0.057130,-20.636301,-90.769821,17.495995,,,,,,,,,,,,,,,,,,,,,,,,,,,,,,,,,,,,,,,,,,,,,,,,,,,,,,,,,,,,,,,,,,,,,,,,,,,,,,,,,,,,,,,,,,,,,,,,,,,,,
1606509173.879273,81.000000,0.000000,4188.974121,4198.077148,4207.692383,4203.333496,4173.461426,4201.282227,4205.128418,4203.846191,4206.025879,4228.846191,4197.307617,4206.538574,4190.641113,4216.666504,3294.000000,4.000000,,,,0.000000,4.000000,4.000000,4.000000,4.000000,4.000000,4.000000,4.000000,4.000000,4.000000,4.000000,4.000000,4.000000,4.000000,4.000000,100.000000,,,,,,,,,,,,,,,,,,,,,,,,,,,,,,,,,,,,,,,,,,,,,,,,,,,,,,,,,,,,,,,,,,,,,,,,,,,,,,,,,,,,,,,,,,,,,,,,,,,,,,,,,,,,,,,,,
1606509173.887070,82.000000,0.000000,4198.846191,4199.743652,4210.384766,4209.102539,4201.666504,4200.641113,4185.641113,4188.205078,4191.538574,4223.205078,4193.333496,4205.384766,4190.512695,4216.282227,3295.000000,4.000000,,,,0.000000,4.000000,4.000000,4.000000,4.000000,4.000000,4.000000,4.000000,4.000000,4.000000,4.000000,4.000000,4.000000,4.000000,4.000000,100.000000,,,,,,,,,,,,,,,,,,,,,,,,,,,,,,,,,,,,,,,,,,,,,,,,,,,,,,,,,,,,,,,,,,,,,,,,,,,,,,,,,,,,,,,,,,,,,,,,,,,,,,,,,,,,,,,,,
1606509173.894868,83.000000,0.000000,4197.820313,4207.948730,4203.589844,4212.692383,4206.153809,4197.051270,4183.717773,4189.871582,4188.205078,4215.512695,4181.538574,4197.051270,4183.461426,4212.307617,3309.000000,4.000000,,,,0.000000,4.000000,4.000000,4.000000,4.000000,4.000000,4.000000,4.000000,4.000000,4.000000,4.000000,4.000000,4.000000,4.000000,4.000000,100.000000,,,,,,,,,,,,,,,,,,,,,,,,,,,,,,,,,,,,,,,,,,,,,,,,,,,,,,,,,,,,,,,,,,,,,,,,,,,,,,,,,,,,,,,,,,,,,,,,,,,,,,,,,,,,,,,,,
1606509173.902665,84.000000,0.000000,4188.461426,4199.487305,4200.256348,4199.102539,4186.666504,4202.307617,4200.512695,4205.128418,4201.410156,4217.051270,4182.051270,4192.307617,4182.563965,4211.666504,3324.000000,4.000000,,,,0.000000,4.000000,4.000000,4.000000,4.000000,4.000000,4.000000,4.000000,4.000000,4.000000,4.000000,4.000000,4.000000,4.000000,4.000000,100.000000,21.000000,0.000000,0.688450,-0.095032,-0.718201,0.034546,1.000504,-0.159182,-0.053223,-18.991379,-90.022125,17.196918,,,,,,,,,,,,,,,,,,,,,,,,,,,,,,,,,,,,,,,,,,,,,,,,,,,,,,,,,,,,,,,,,,,,,,,,,,,,,,,,,,,,,,,,,,,,,,,,,,,,,
1606509173.910462,85.000000,0.000000,4186.922852,4198.077148,4205.384766,4198.974121,4185.256348,4208.461426,4207.051270,4203.077148,4195.897461,4209.615234,4186.410156,4200.897461,4187.563965,4216.666504,3294.000000,4.000000,,,,0.000000,4.000000,4.000000,4.000000,4.000000,4.000000,4.000000,4.000000,4.000000,4.000000,4.000000,4.000000,4.000000,4.000000,4.000000,100.000000,,,,,,,,,,,,,,,,,,,,,,,,,,,,,,,,,,,,,,,,,,,,,,,,,,,,,,,,,,,,,,,,,,,,,,,,,,,,,,,,,,,,,,,,,,,,,,,,,,,,,,,,,,,,,,,,,
1606509173.918160,86.000000,0.000000,4180.641113,4199.102539,4198.974121,4204.615234,4193.974121,4209.230957,4199.871582,4186.922852,4177.436035,4194.487305,4183.846191,4198.717773,4180.512695,4213.333496,3295.000000,4.000000,,,,0.000000,4.000000,4.000000,4.000000,4.000000,4.000000,4.000000,4.000000,4.000000,4.000000,4.000000,4.000000,4.000000,4.000000,4.000000,100.000000,,,,,,,,,,,,,,,,,,,,,,,,,,,,,,,,,,,,,,,,,,,,3.977887,2.507311,1.035368,0.691331,0.919615,2.345683,2.287914,0.596749,0.591479,0.474521,2.990702,2.547793,0.763028,0.922581,1.316903,2.032831,1.577509,1.606702,0.608882,0.877886,0.924072,0.902381,0.595390,0.698284,0.507039,0.462465,0.388902,0.234165,0.305004,0.128531,0.520776,1.504599,0.333765,0.700934,0.467291,0.440246,3.266752,1.242249,0.549246,0.575801,1.640905,5.594806,2.050449,1.270552,0.942100,2.977210,4.277495,3.298673,2.821886,1.199806,2.165316,4.547650,2.149457,3.633974,3.169311,1.851799,2.772015,1.819136,1.756685,2.372766,4.738453,3.925236,2.894939,1.676007,0.722239,2.682109,3.477434,1.686577,1.068615,0.832587
1606509173.925957,87.000000,0.000000,4171.666504,4189.615234,4191.410156,4199.358887,4187.179688,4208.589844,4189.358887,4183.205078,4174.102539,4190.256348,4179.358887,4192.179688,4171.538574,4207.051270,3309.000000,4.000000,,,,0.000000,4.000000,4.000000,4.000000,4.000000,4.000000,4.000000,4.000000,4.000000,4.000000,4.000000,4.000000,4.000000,4.000000,4.000000,100.000000,,,,,,,,,,,,,,,,,,,,,,,,,,,,,,,,,,,,,,,,,,,,,,,,,,,,,,,,,,,,,,,,,,,,,,,,,,,,,,,,,,,,,,,,,,,,,,,,,,,,,,,,,,,,,,,,,
1606509173.933754,88.000000,0.000000,4179.487305,4192.563965,4200.641113,4200.897461,4180.641113,4207.948730,4190.512695,4194.358887,4184.743652,4200.384766,4184.743652,4192.051270,4181.153809,4212.820313,3324.000000,4.000000,,,,0.000000,4.000000,4.000000,4.000000,4.000000,4.000000,4.000000,4.000000,4.000000,4.000000,4.000000,4.000000,4.000000,4.000000,4.000000,100.000000,22.000000,0.000000,0.688683,-0.094849,-0.718079,0.032898,0.990738,-0.163577,-0.043458,-17.944611,-90.919357,17.346457,,,,,,,,,,,,,,,,,,,,,,,,,,,,,,,,,,,,,,,,,,,,,,,,,,,,,,,,,,,,,,,,,,,,,,,,,,,,,,,,,,,,,,,,,,,,,,,,,,,,,
1606509173.941551,89.000000,0.000000,4192.307617,4205.641113,4205.128418,4207.563965,4192.051270,4209.102539,4199.615234,4201.282227,4194.487305,4201.794922,4187.179688,4193.846191,4191.153809,4218.589844,3294.000000,4.000000,,,,0.000000,4.000000,4.000000,4.000000,4.000000,4.000000,4.000000,4.000000,4.000000,4.000000,4.000000,4.000000,4.000000,4.000000,4.000000,100.000000,,,,,,,,,,,,,,,,,,,,,,,,,,,,,,,,,,,,,,,,,,,,,,,,,,,,,,,,,,,,,,,,,,,,,,,,,,,,,,,,,,,,,,,,,,,,,,,,,,,,,,,,,,,,,,,,,
1606509173.949348,90.000000,0.000000,4199.487305,4201.794922,4201.025879,4200.256348,4195.000000,4207.692383,4202.563965,4198.717773,4196.282227,4196.153809,4178.333496,4202.948730,4186.410156,4212.436035,3295.000000,4.000000,,,,0.000000,4.000000,4.000000,4.000000,4.000000,4.000000,4.000000,4.000000,4.000000,4.000000,4.000000,4.000000,4.000000,4.000000,4.000000,100.000000,,,,,,,,,,,,,,,,,,,,,,,,,,,,,,,,,,,,,,,,,,,,,,,,,,,,,,,,,,,,,,,,,,,,,,,,,,,,,,,,,,,,,,,,,,,,,,,,,,,,,,,,,,,,,,,,,
1606509173.957146,91.000000,0.000000,4203.077148,4195.000000,4205.769043,4198.846191,4183.589844,4201.025879,4198.205078,4201.666504,4201.025879,4210.384766,4177.051270,4209.615234,4184.871582,4213.461426,3309.000000,4.000000,,,,0.000000,4.000000,4.000000,4.000000,4.000000,4.000000,4.000000,4.000000,4.000000,4.000000,4.000000,4.000000,4.000000,4.000000,4.000000,100.000000,,,,,,,,,,,,,,,,,,,,,,,,,,,,,,,,,,,,,,,,,,,,,,,,,,,,,,,,,,,,,,,,,,,,,,,,,,,,,,,,,,,,,,,,,,,,,,,,,,,,,,,,,,,,,,,,,
1606509173.964943,92.000000,0.000000,4193.333496,4201.538574,4208.717773,4209.358887,4186.538574,4197.051270,4197.820313,4205.512695,4206.025879,4223.717773,4184.102539,4202.692383,4187.179688,4220.128418,3324.000000,4.000000,,,,0.000000,4.000000,4.000000,4.000000,4.000000,4.000000,4.000000,4.000000,4.000000,4.000000,4.000000,4.000000,4.000000,4.000000,4.000000,100.000000,23.000000,0.000000,0.688917,-0.094849,-0.717896,0.031982,1.001968,-0.159182,-0.047364,-18.991379,-91.517509,17.944611,,,,,,,,,,,,,,,,,,,,,,,,,,,,,,,,,,,,,,,,,,,,,,,,,,,,,,,,,,,,,,,,,,,,,,,,,,,,,,,,,,,,,,,,,,,,,,,,,,,,,
1606509173.972740,93.000000,0.000000,4181.153809,4204.358887,4201.282227,4207.307617,4190.641113,4202.692383,4201.025879,4201.282227,4199.358887,4204.102539,4190.128418,4199.358887,4185.256348,4216.922852,3294.000000,4.000000,,,,0.000000,4.000000,4.000000,4.000000,4.000000,4.000000,4.000000,4.000000,4.000000,4.000000,4.000000,4.000000,4.000000,4.000000,4.000000,100.000000,,,,,,,,,,,,,,,,,,,,,,,,,,,,,,,,,,,,,,,,,,,,,,,,,,,,,,,,,,,,,,,,,,,,,,,,,,,,,,,,,,,,,,,,,,,,,,,,,,,,,,,,,,,,,,,,,
1606509173.980537,94.000000,0.000000,4185.384766,4195.256348,4202.051270,4199.102539,4177.307617,4203.589844,4201.410156,4202.563965,4200.512695,4195.128418,4194.358887,4198.974121,4186.922852,4213.077148,3295.000000,4.000000,,,,0.000000,4.000000,4.000000,4.000000,4.000000,4.000000,4.000000,4.000000,4.000000,4.000000,4.000000,4.000000,4.000000,4.000000,4.000000,100.000000,,,,,,,,,,,,,,,,,,,,,,,,,,,,,,,,,,,,,,,,,,,,,,,,,,,,,,,,,,,,,,,,,,,,,,,,,,,,,,,,,,,,,,,,,,,,,,,,,,,,,,,,,,,,,,,,,
1606509173.988235,95.000000,0.000000,4189.102539,4187.692383,4204.871582,4199.230957,4171.922852,4200.000000,4201.538574,4203.717773,4203.974121,4211.282227,4191.538574,4191.666504,4189.358887,4212.820313,3309.000000,4.000000,,,,0.000000,4.000000,4.000000,4.000000,4.000000,4.000000,4.000000,4.000000,4.000000,4.000000,4.000000,4.000000,4.000000,4.000000,4.000000,100.000000,,,,,,,,,,,,,,,,,,,,,,,,,,,,,,,,,,,,,,,,,,,,,,,,,,,,,,,,,,,,,,,,,,,,,,,,,,,,,,,,,,,,,,,,,,,,,,,,,,,,,,,,,,,,,,,,,
1606509173.996032,96.000000,0.000000,4185.000000,4194.102539,4201.666504,4200.769043,4190.128418,4202.179688,4196.922852,4193.205078,4189.358887,4208.589844,4181.153809,4191.922852,4184.615234,4211.410156,3324.000000,4.000000,,,,0.000000,4.000000,4.000000,4.000000,4.000000,4.000000,4.000000,4.000000,4.000000,4.000000,4.000000,4.000000,4.000000,4.000000,4.000000,100.000000,24.000000,0.000000,0.689398,-0.095093,-0.717468,0.030457,1.005875,-0.145510,-0.034180,-19.888609,-90.769821,18.393225,,,,,,,,,,,,,,,,,,,,,,,,,,,,,,,,,,,,,,,,,,,,,,,,,,,,,,,,,,,,,,,,,,,,,,,,,,,,,,,,,,,,,,,,,,,,,,,,,,,,,
1606509174.003829,97.000000,0.000000,4190.384766,4203.846191,4208.077148,4203.077148,4200.384766,4199.102539,4194.871582,4193.205078,4187.820313,4203.717773,4177.948730,4201.410156,4183.333496,4214.102539,3294.000000,4.000000,,,,0.000000,4.000000,4.000000,4.000000,4.000000,4.000000,4.000000,4.000000,4.000000,4.000000,4.000000,4.000000,4.000000,4.000000,4.000000,100.000000,,,,,,,,,,,,,,,,,,,,,,,,,,,,,,,,,,,,,,,,,,,,,,,,,,,,,,,,,,,,,,,,,,,,,,,,,,,,,,,,,,,,,,,,,,,,,,,,,,,,,,,,,,,,,,,,,
1606509174.011627,98.000000,0.000000,4197.948730,4200.641113,4215.000000,4206.666504,4190.641113,4198.077148,4197.692383,4202.692383,4203.333496,4210.384766,4179.358887,4206.153809,4187.179688,4219.102539,3295.000000,4.000000,,,,0.000000,4.000000,4.000000,4.000000,4.000000,4.000000,4.000000,4.000000,4.000000,4.000000,4.000000,4.000000,4.000000,4.000000,4.000000,100.000000,,,,,,,,,,,,,,,,,,,,,,,,,,,,,,,,,,,,,,,,,,,,,,,,,,,,,,,,,,,,,,,,,,,,,,,,,,,,,,,,,,,,,,,,,,,,,,,,,,,,,,,,,,,,,,,,,
1606509174.019424,99.000000,0.000000,4200.000000,4195.128418,4215.769043,4208.717773,4181.538574,4204.743652,4203.717773,4206.922852,4206.282227,4207.563965,4189.230957,4206.410156,4192.179688,4220.000000,3309.000000,4.000000,,,,0.000000,4.000000,4.000000,4.000000,4.000000,4.000000,4.000000,4.000000,4.000000,4.000000,4.000000,4.000000,4.000000,4.000000,4.000000,100.000000,,,,,,,,,,,,,,,,,,,,,,,,,,,,,,,,,,,,,,,,,,,,,,,,,,,,,,,,,,,,,,,,,,,,,,,,,,,,,,,,,,,,,,,,,,,,,,,,,,,,,,,,,,,,,,,,,
1606509174.027221,100.000000,0.000000,4198.205078,4198.205078,4216.794922,4210.256348,4186.153809,4203.461426,4205.897461,4209.487305,4203.333496,4202.948730,4201.922852,4199.743652,4192.051270,4214.871582,3324.000000,4.000000,,,,0.000000,4.000000,4.000000,4.000000,4.000000,4.000000,4.000000,4.000000,4.000000,4.000000,4.000000,4.000000,4.000000,4.000000,4.000000,100.000000,25.000000,0.000000,0.689623,-0.095276,-0.717285,0.029053,1.006851,-0.137209,-0.038087,-17.795071,-90.769821,18.393225,,,,,,,,,,,,,,,,,,,,,,,,,,,,,,,,,,,,,,,,,,,,,,,,,,,,,,,,,,,,,,,,,,,,,,,,,,,,,,,,,,,,,,,,,,,,,,,,,,,,,
1606509174.035018,101.000000,0.000000,4191.282227,4205.256348,4215.000000,4208.333496,4197.179688,4198.077148,4205.769043,4210.897461,4208.589844,4208.589844,4195.384766,4201.794922,4196.153809,4218.846191,3294.000000,4.000000,,,,0.000000,4.000000,4.000000,4.000000,4.000000,4.000000,4.000000,4.000000,4.000000,4.000000,4.000000,4.000000,4.000000,4.000000,4.000000,100.000000,,,,,,,,,,,,,,,,,,,,,,,,,,,,,,,,,,,,,,,,,,,,,,,,,,,,,,,,,,,,,,,,,,,,,,,,,,,,,,,,,,,,,,,,,,,,,,,,,,,,,,,,,,,,,,,,,
1606509174.042815,102.000000,0.000000,4182.436035,4198.333496,4208.589844,4203.589844,4195.897461,4206.153809,4212.563965,4199.487305,4196.922852,4202.820313,4181.282227,4206.153809,4198.333496,4224.487305,3295.000000,4.000000,,,,0.000000,4.000000,4.000000,4.000000,4.000000,4.000000,4.000000,4.000000,4.000000,4.000000,4.000000,4.000000,4.000000,4.000000,4.000000,100.000000,,,,,,,,,,,,,,,,,,,,,,,,,,,,,,,,,,,,,,,,,,,,3.825267,2.448603,1.130255,0.653966,0.983458,2.722789,2.196179,0.633628,0.620813,0.489103,2.449652,2.574388,0.755780,0.894142,1.386185,1.818013,1.583386,1.748289,0.657757,0.846111,0.865048,0.905017,0.601756,0.665154,0.504718,0.365417,0.371452,0.207616,0.311287,0.151041,0.456636,1.494772,0.318044,0.651723,0.470917,0.496240,2.872463,1.097159,0.450827,0.518140,1.706302,4.808326,1.845028,1.077449,0.873462,3.646003,4.229805,2.574559,2.892942,1.203591,1.827142,4.021020,1.796867,3.412415,2.944504,1.930511,2.680841,1.747321,1.595343,2.090796,3.532089,3.057738,2.697651,1.612133,0.665469,2.225332,2.987117,1.563732,0.870081,0.835759
1606509174.050613,103.000000,0.000000,4183.205078,4183.205078,4203.717773,4201.410156,4188.974121,4211.538574,4211.153809,4188.461426,4180.000000,4193.974121,4181.153809,4195.641113,4192.563965,4216.153809,3309.000000,4.000000,,,,0.000000,4.000000,4.000000,4.000000,4.000000,4.000000,4.000000,4.000000,4.000000,4.000000,4.000000,4.000000,4.000000,4.000000,4.000000,100.000000,,,,,,,,,,,,,,,,,,,,,,,,,,,,,,,,,,,,,,,,,,,,,,,,,,,,,,,,,,,,,,,,,,,,,,,,,,,,,,,,,,,,,,,,,,,,,,,,,,,,,,,,,,,,,,,,,
1606509174.058310,104.000000,0.000000,4196.025879,4187.820313,4209.230957,4197.051270,4193.589844,4200.512695,4197.179688,4198.077148,4196.153809,4206.538574,4191.538574,4203.077148,4192.692383,4216.025879,3324.000000,4.000000,,,,0.000000,4.000000,4.000000,4.000000,4.000000,4.000000,4.000000,4.000000,4.000000,4.000000,4.000000,4.000000,4.000000,4.000000,4.000000,100.000000,26.000000,0.000000,0.689575,-0.095459,-0.717346,0.028076,1.013199,-0.139651,-0.042969,-17.795071,-89.573509,19.140917,,,,,,,,,,,,,,,,,,,,,,,,,,,,,,,,,,,,,,,,,,,,,,,,,,,,,,,,,,,,,,,,,,,,,,,,,,,,,,,,,,,,,,,,,,,,,,,,,,,,,
1606509174.066108,105.000000,0.000000,4201.794922,4200.641113,4214.871582,4198.333496,4195.641113,4195.512695,4197.948730,4210.897461,4216.410156,4215.641113,4202.436035,4213.333496,4203.589844,4228.846191,3294.000000,4.000000,,,,0.000000,4.000000,4.000000,4.000000,4.000000,4.000000,4.000000,4.000000,4.000000,4.000000,4.000000,4.000000,4.000000,4.000000,4.000000,100.000000,,,,,,,,,,,,,,,,,,,,,,,,,,,,,,,,,,,,,,,,,,,,,,,,,,,,,,,,,,,,,,,,,,,,,,,,,,,,,,,,,,,,,,,,,,,,,,,,,,,,,,,,,,,,,,,,,
1606509174.073905,106.000000,0.000000,4202.307617,4200.000000,4217.307617,4208.974121,4186.410156,4202.307617,4211.538574,4208.077148,4210.641113,4216.282227,4207.051270,4207.563965,4212.692383,4234.102539,3295.000000,4.000000,,,,0.000000,4.000000,4.000000,4.000000,4.000000,4.000000,4.000000,4.000000,4.000000,4.000000,4.000000,4.000000,4.000000,4.000000,4.000000,100.000000,,,,,,,,,,,,,,,,,,,,,,,,,,,,,,,,,,,,,,,,,,,,,,,,,,,,,,,,,,,,,,,,,,,,,,,,,,,,,,,,,,,,,,,,,,,,,,,,,,,,,,,,,,,,,,,,,
1606509174.081703,107.000000,0.000000,4204.487305,4197.179688,4218.717773,4209.358887,4180.897461,4200.769043,4211.794922,4205.384766,4204.230957,4216.282227,4198.974121,4209.871582,4208.589844,4230.897461,3309.000000,4.000000,,,,0.000000,4.000000,4.000000,4.000000,4.000000,4.000000,4.000000,4.000000,4.000000,4.000000,4.000000,4.000000,4.000000,4.000000,4.000000,100.000000,,,,,,,,,,,,,,,,,,,,,,,,,,,,,,,,,,,,,,,,,,,,,,,,,,,,,,,,,,,,,,,,,,,,,,,,,,,,,,,,,,,,,,,,,,,,,,,,,,,,,,,,,,,,,,,,,
1606509174.089500,108.000000,0.000000,4191.153809,4192.307617,4211.538574,4196.922852,4185.641113,4196.410156,4198.589844,4202.820313,4200.000000,4199.743652,4178.461426,4203.846191,4187.820313,4215.384766,3324.000000,4.000000,,,,0.000000,4.000000,4.000000,4.000000,4.000000,4.000000,4.000000,4.000000,4.000000,4.000000,4.000000,4.000000,4.000000,4.000000,4.000000,100.000000,27.000000,0.000000,0.689231,-0.095825,-0.717651,0.027466,1.007828,-0.151858,-0.026368,-18.243687,-90.022125,17.944611,,,,,,,,,,,,,,,,,,,,,,,,,,,,,,,,,,,,,,,,,,,,,,,,,,,,,,,,,,,,,,,,,,,,,,,,,,,,,,,,,,,,,,,,,,,,,,,,,,,,,
1606509174.097298,109.000000,0.000000,4181.153809,4183.205078,4204.871582,4194.743652,4187.563965,4201.153809,4192.820313,4192.563965,4192.179688,4185.512695,4170.769043,4192.051270,4176.025879,4203.205078,3294.000000,4.000000,,,,0.000000,4.000000,4.000000,4.000000,4.000000,4.000000,4.000000,4.000000,4.000000,4.000000,4.000000,4.000000,4.000000,4.000000,4.000000,100.000000,,,,,,,,,,,,,,,,,,,,,,,,,,,,,,,,,,,,,,,,,,,,,,,,,,,,,,,,,,,,,,,,,,,,,,,,,,,,,,,,,,,,,,,,,,,,,,,,,,,,,,,,,,,,,,,,,
1606509174.105095,110.000000,0.000000,4202.820313,4191.153809,4216.538574,4206.794922,4185.641113,4204.230957,4198.205078,4197.179688,4203.846191,4201.922852,4190.384766,4208.974121,4197.692383,4223.333496,3295.000000,4.000000,,,,0.000000,4.000000,4.000000,4.000000,4.000000,4.000000,4.000000,4.000000,4.000000,4.000000,4.000000,4.000000,4.000000,4.000000,4.000000,100.000000,,,,,,,,,,,,,,,,,,,,,,,,,,,,,,,,,,,,,,,,,,,,,,,,,,,,,,,,,,,,,,,,,,,,,,,,,,,,,,,,,,,,,,,,,,,,,,,,,,,,,,,,,,,,,,,,,
1606509174.112893,111.000000,0.000000,4217.563965,4205.897461,4225.769043,4213.333496,4186.922852,4199.230957,4207.179688,4212.948730,4215.384766,4219.102539,4202.692383,4226.153809,4212.820313,4237.692383,3309.000000,4.000000,,,,0.000000,4.000000,4.000000,4.000000,4.000000,4.000000,4.000000,4.000000,4.000000,4.000000,4.000000,4.000000,4.000000,4.000000,4.000000,100.000000,,,,,,,,,,,,,,,,,,,,,,,,,,,,,,,,,,,,,,,,,,,,,,,,,,,,,,,,,,,,,,,,,,,,,,,,,,,,,,,,,,,,,,,,,,,,,,,,,,,,,,,,,,,,,,,,,
1606509174.120690,112.000000,0.000000,4202.051270,4200.384766,4212.051270,4209.102539,4194.230957,4200.256348,4204.358887,4207.307617,4200.384766,4210.512695,4187.948730,4203.974121,4193.205078,4213.461426,3324.000000,4.000000,,,,0.000000,4.000000,4.000000,4.000000,4.000000,4.000000,4.000000,4.000000,4.000000,4.000000,4.000000,4.000000,4.000000,4.000000,4.000000,100.000000,28.000000,0.000000,0.688878,-0.096130,-0.717957,0.027283,1.010269,-0.147951,-0.036133,-18.243687,-90.321205,17.196918,,,,,,,,,,,,,,,,,,,,,,,,,,,,,,,,,,,,,,,,,,,,,,,,,,,,,,,,,,,,,,,,,,,,,,,,,,,,,,,,,,,,,,,,,,,,,,,,,,,,,
1606509174.128388,113.000000,0.000000,4183.974121,4184.358887,4197.820313,4194.487305,4200.000000,4213.333496,4198.077148,4198.205078,4193.205078,4190.512695,4171.922852,4177.179688,4174.871582,4196.282227,3294.000000,4.000000,,,,0.000000,4.000000,4.000000,4.000000,4.000000,4.000000,4.000000,4.000000,4.000000,4.000000,4.000000,4.000000,4.000000,4.000000,4.000000,100.000000,,,,,,,,,,,,,,,,,,,,,,,,,,,,,,,,,,,,,,,,,,,,,,,,,,,,,,,,,,,,,,,,,,,,,,,,,,,,,,,,,,,,,,,,,,,,,,,,,,,,,,,,,,,,,,,,,
1606509174.136185,114.000000,0.000000,4171.922852,4174.358887,4191.282227,4180.000000,4201.538574,4221.538574,4200.897461,4200.256348,4191.794922,4177.179688,4169.743652,4173.077148,4169.487305,4198.333496,3295.000000,4.000000,,,,0.000000,4.000000,4.000000,4.000000,4.000000,4.000000,4.000000,4.000000,4.000000,4.000000,4.000000,4.000000,4.000000,4.000000,4.000000,100.000000,,,,,,,,,,,,,,,,,,,,,,,,,,,,,,,,,,,,,,,,,,,,,,,,,,,,,,,,,,,,,,,,,,,,,,,,,,,,,,,,,,,,,,,,,,,,,,,,,,,,,,,,,,,,,,,,,
1606509174.143983,115.000000,0.000000,4171.794922,4179.230957,4187.820313,4185.641113,4200.256348,4214.615234,4201.666504,4196.922852,4182.051270,4184.487305,4172.436035,4183.333496,4174.230957,4203.589844,3309.000000,4.000000,,,,0.000000,4.000000,4.000000,4.000000,4.000000,4.000000,4.000000,4.000000,4.000000,4.000000,4.000000,4.000000,4.000000,4.000000,4.000000,100.000000,,,,,,,,,,,,,,,,,,,,,,,,,,,,,,,,,,,,,,,,,,,,,,,,,,,,,,,,,,,,,,,,,,,,,,,,,,,,,,,,,,,,,,,,,,,,,,,,,,,,,,,,,,,,,,,,,
1606509174.151780,116.000000,0.000000,4188.333496,4190.000000,4198.717773,4199.230957,4191.538574,4201.794922,4198.589844,4200.897461,4196.153809,4208.589844,4182.436035,4202.179688,4194.102539,4214.487305,3324.000000,4.000000,,,,0.000000,4.000000,4.000000,4.000000,4.000000,4.000000,4.000000,4.000000,4.000000,4.000000,4.000000,4.000000,4.000000,4.000000,4.000000,100.000000,29.000000,0.000000,0.688920,-0.096252,-0.717896,0.027405,1.000504,-0.163577,-0.058106,-19.888609,-90.321205,17.495995,,,,,,,,,,,,,,,,,,,,,,,,,,,,,,,,,,,,,,,,,,,,,,,,,,,,,,,,,,,,,,,,,,,,,,,,,,,,,,,,,,,,,,,,,,,,,,,,,,,,,
1606509174.159578,117.000000,0.000000,4195.769043,4184.102539,4209.743652,4197.436035,4177.948730,4196.282227,4201.410156,4217.436035,4216.794922,4212.820313,4190.897461,4211.153809,4201.794922,4217.563965,3294.000000,4.000000,,,,0.000000,4.000000,4.000000,4.000000,4.000000,4.000000,4.000000,4.000000,4.000000,4.000000,4.000000,4.000000,4.000000,4.000000,4.000000,100.000000,,,,,,,,,,,,,,,,,,,,,,,,,,,,,,,,,,,,,,,,,,,,,,,,,,,,,,,,,,,,,,,,,,,,,,,,,,,,,,,,,,,,,,,,,,,,,,,,,,,,,,,,,,,,,,,,,
1606509174.167375,118.000000,0.000000,4197.820313,4180.641113,4206.153809,4196.666504,4175.000000,4198.589844,4205.769043,4218.846191,4207.820313,4201.410156,4193.461426,4202.820313,4190.000000,4212.948730,3295.000000,4.000000,,,,0.000000,4.000000,4.000000,4.000000,4.000000,4.000000,4.000000,4.000000,4.000000,4.000000,4.000000,4.000000,4.000000,4.000000,4.000000,100.000000,,,,,,,,,,,,,,,,,,,,,,,,,,,,,,,,,,,,,,,,,,,,3.765590,2.445383,1.145134,0.627534,1.001278,3.211107,2.068915,0.638031,0.595998,0.466405,2.015888,2.626541,0.731436,0.815497,1.308269,1.753953,1.609967,1.719621,0.672900,0.752708,0.807464,0.877224,0.562258,0.649302,0.504858,0.292949,0.345346,0.176949,0.296296,0.172827,0.387348,1.430267,0.287914,0.572922,0.458569,0.587767,2.420258,0.881105,0.378956,0.446977,1.788705,3.858993,1.522889,0.892843,0.775105,5.184121,4.333201,2.087615,3.019200,1.146662,1.557399,3.518929,1.368409,2.896136,2.443572,2.000956,2.632890,1.560891,1.413794,1.667640,2.612835,2.372753,2.323709,1.453652,0.586558,1.790494,2.723367,1.364940,0.680835,0.779403
1606509174.175173,119.000000,0.000000,4200.128418,4191.153809,4200.128418,4199.615234,4185.897461,4200.000000,4199.102539,4202.563965,4193.846191,4204.871582,4192.307617,4189.615234,4186.922852,4215.128418,3309.000000,4.000000,,,,0.000000,4.000000,4.000000,4.000000,4.000000,4.000000,4.000000,4.000000,4.000000,4.000000,4.000000,4.000000,4.000000,4.000000,4.000000,100.000000,,,,,,,,,,,,,,,,,,,,,,,,,,,,,,,,,,,,,,,,,,,,,,,,,,,,,,,,,,,,,,,,,,,,,,,,,,,,,,,,,,,,,,,,,,,,,,,,,,,,,,,,,,,,,,,,,
1606509174.182970,120.000000,0.000000,4188.205078,4192.948730,4200.000000,4194.487305,4194.871582,4197.948730,4188.717773,4199.615234,4197.051270,4210.384766,4194.487305,4195.256348,4197.692383,4218.077148,3324.000000,4.000000,,,,0.000000,4.000000,4.000000,4.000000,4.000000,4.000000,4.000000,4.000000,4.000000,4.000000,4.000000,4.000000,4.000000,4.000000,4.000000,100.000000,30.000000,0.000000,0.689109,-0.096191,-0.717712,0.027649,1.005875,-0.159670,-0.058106,-18.841841,-90.919357,15.402456,,,,,,,,,,,,,,,,,,,,,,,,,,,,,,,,,,,,,,,,,,,,,,,,,,,,,,,,,,,,,,,,,,,,,,,,,,,,,,,,,,,,,,,,,,,,,,,,,,,,,
1606509174.190768,121.000000,0.000000,4190.256348,4190.769043,4208.974121,4193.589844,4190.128418,4197.820313,4194.487305,4215.256348,4213.461426,4222.692383,4211.666504,4217.051270,4215.000000,4226.666504,3294.000000,4.000000,,,,0.000000,4.000000,4.000000,4.000000,4.000000,4.000000,4.000000,4.000000,4.000000,4.000000,4.000000,4.000000,4.000000,4.000000,4.000000,100.000000,,,,,,,,,,,,,,,,,,,,,,,,,,,,,,,,,,,,,,,,,,,,,,,,,,,,,,,,,,,,,,,,,,,,,,,,,,,,,,,,,,,,,,,,,,,,,,,,,,,,,,,,,,,,,,,,,
1606509174.198465,122.000000,0.000000,4210.128418,4198.333496,4217.051270,4201.153809,4178.461426,4202.051270,4205.384766,4220.512695,4225.000000,4243.077148,4212.179688,4216.410156,4220.769043,4234.871582,3295.000000,4.000000,,,,0.000000,4.000000,4.000000,4.000000,4.000000,4.000000,4.000000,4.000000,4.000000,4.000000,4.000000,4.000000,4.000000,4.000000,4.000000,100.000000,,,,,,,,,,,,,,,,,,,,,,,,,,,,,,,,,,,,,,,,,,,,,,,,,,,,,,,,,,,,,,,,,,,,,,,,,,,,,,,,,,,,,,,,,,,,,,,,,,,,,,,,,,,,,,,,,
1606509174.206263,123.000000,0.000000,4213.461426,4205.256348,4214.743652,4207.307617,4184.615234,4203.846191,4206.153809,4213.717773,4221.666504,4237.307617,4199.102539,4198.589844,4211.282227,4227.307617,3309.000000,4.000000,,,,0.000000,4.000000,4.000000,4.000000,4.000000,4.000000,4.000000,4.000000,4.000000,4.000000,4.000000,4.000000,4.000000,4.000000,4.000000,100.000000,,,,,,,,,,,,,,,,,,,,,,,,,,,,,,,,,,,,,,,,,,,,,,,,,,,,,,,,,,,,,,,,,,,,,,,,,,,,,,,,,,,,,,,,,,,,,,,,,,,,,,,,,,,,,,,,,
1606509174.214060,124.000000,0.000000,4209.102539,4200.897461,4213.333496,4207.948730,4198.846191,4200.512695,4198.461426,4210.641113,4210.897461,4218.461426,4198.461426,4197.563965,4206.282227,4215.128418,3324.000000,4.000000,,,,0.000000,4.000000,4.000000,4.000000,4.000000,4.000000,4.000000,4.000000,4.000000,4.000000,4.000000,4.000000,4.000000,4.000000,4.000000,100.000000,31.000000,0.000000,0.689418,-0.096130,-0.717407,0.028076,0.999527,-0.170413,-0.048829,-19.290455,-89.872589,17.047379,,,,,,,,,,,,,,,,,,,,,,,,,,,,,,,,,,,,,,,,,,,,,,,,,,,,,,,,,,,,,,,,,,,,,,,,,,,,,,,,,,,,,,,,,,,,,,,,,,,,,
1606509174.221858,125.000000,0.000000,4207.051270,4189.487305,4210.512695,4200.897461,4195.384766,4200.384766,4191.538574,4207.179688,4203.589844,4214.743652,4191.922852,4202.692383,4200.769043,4207.563965,3294.000000,4.000000,,,,0.000000,4.000000,4.000000,4.000000,4.000000,4.000000,4.000000,4.000000,4.000000,4.000000,4.000000,4.000000,4.000000,4.000000,4.000000,100.000000,,,,,,,,,,,,,,,,,,,,,,,,,,,,,,,,,,,,,,,,,,,,,,,,,,,,,,,,,,,,,,,,,,,,,,,,,,,,,,,,,,,,,,,,,,,,,,,,,,,,,,,,,,,,,,,,,
1606509174.229655,126.000000,0.000000,4192.692383,4179.871582,4196.410156,4195.000000,4184.871582,4202.820313,4191.922852,4200.128418,4202.436035,4212.179688,4182.563965,4192.307617,4186.282227,4200.256348,3295.000000,4.000000,,,,0.000000,4.000000,4.000000,4.000000,4.000000,4.000000,4.000000,4.000000,4.000000,4.000000,4.000000,4.000000,4.000000,4.000000,4.000000,100.000000,,,,,,,,,,,,,,,,,,,,,,,,,,,,,,,,,,,,,,,,,,,,,,,,,,,,,,,,,,,,,,,,,,,,,,,,,,,,,,,,,,,,,,,,,,,,,,,,,,,,,,,,,,,,,,,,,
1606509174.237453,127.000000,0.000000,4178.077148,4181.794922,4189.230957,4192.948730,4183.974121,4201.922852,4200.256348,4200.384766,4204.230957,4201.282227,4180.000000,4174.615234,4179.743652,4193.974121,53.000000,4.000000,,,,0.000000,4.000000,4.000000,4.000000,4.000000,4.000000,4.000000,4.000000,4.000000,4.000000,4.000000,4.000000,4.000000,4.000000,4.000000,100.000000,,,,,,,,,,,,,,,,,,,,,,,,,,,,,,,,,,,,,,,,,,,,,,,,,,,,,,,,,,,,,,,,,,,,,,,,,,,,,,,,,,,,,,,,,,,,,,,,,,,,,,,,,,,,,,,,,
1606509174.245250,0.000000,0.000000,4184.358887,4186.794922,4195.769043,4186.025879,4186.153809,4199.615234,4204.743652,4204.871582,4200.512695,4200.128418,4173.974121,4167.179688,4181.666504,4188.589844,3369.000000,4.000000,,,,0.000000,4.000000,4.000000,4.000000,4.000000,4.000000,4.000000,4.000000,4.000000,4.000000,4.000000,4.000000,4.000000,4.000000,4.000000,100.000000,0.000000,0.000000,0.689667,-0.096130,-0.717163,0.028198,1.008316,-0.178714,-0.041016,-18.991379,-91.517509,18.692303,,,,,,,,,,,,,,,,,,,,,,,,,,,,,,,,,,,,,,,,,,,,,,,,,,,,,,,,,,,,,,,,,,,,,,,,,,,,,,,,,,,,,,,,,,,,,,,,,,,,,
1606509174.253048,1.000000,0.000000,4190.384766,4177.948730,4193.717773,4184.102539,4189.871582,4200.512695,4199.230957,4202.563965,4193.333496,4201.025879,4165.769043,4170.641113,4181.282227,4186.025879,3503.000000,4.000000,,,,0.000000,4.000000,4.000000,4.000000,4.000000,4.000000,4.000000,4.000000,4.000000,4.000000,4.000000,4.000000,4.000000,4.000000,4.000000,100.000000,,,,,,,,,,,,,,,,,,,,,,,,,,,,,,,,,,,,,,,,,,,,,,,,,,,,,,,,,,,,,,,,,,,,,,,,,,,,,,,,,,,,,,,,,,,,,,,,,,,,,,,,,,,,,,,,,
1606509174.260845,2.000000,0.000000,4177.179688,4168.974121,4180.384766,4188.589844,4196.153809,4203.333496,4195.256348,4194.487305,4188.846191,4191.794922,4162.692383,4171.410156,4175.000000,4183.333496,3534.000000,4.000000,,,,0.000000,4.000000,4.000000,4.000000,4.000000,4.000000,4.000000,4.000000,4.000000,4.000000,4.000000,4.000000,4.000000,4.000000,4.000000,100.000000,,,,,,,,,,,,,,,,,,,,,,,,,,,,,,,,,,,,,,,,,,,,,,,,,,,,,,,,,,,,,,,,,,,,,,,,,,,,,,,,,,,,,,,,,,,,,,,,,,,,,,,,,,,,,,,,,
1606509174.268642,3.000000,0.000000,4173.205078,4175.897461,4180.512695,4189.487305,4190.769043,4202.948730,4195.897461,4198.077148,4196.538574,4195.256348,4167.563965,4166.794922,4170.641113,4181.922852,3408.000000,4.000000,,,,0.000000,4.000000,4.000000,4.000000,4.000000,4.000000,4.000000,4.000000,4.000000,4.000000,4.000000,4.000000,4.000000,4.000000,4.000000,100.000000,,,,,,,,,,,,,,,,,,,,,,,,,,,,,,,,,,,,,,,,,,,,,,,,,,,,,,,,,,,,,,,,,,,,,,,,,,,,,,,,,,,,,,,,,,,,,,,,,,,,,,,,,,,,,,,,,
1606509174.276340,4.000000,0.000000,4193.461426,4187.307617,4197.820313,4193.333496,4182.820313,4200.769043,4198.333496,4211.153809,4210.384766,4218.846191,4189.615234,4173.333496,4186.025879,4193.205078,3384.000000,4.000000,,,,0.000000,4.000000,4.000000,4.000000,4.000000,4.000000,4.000000,4.000000,4.000000,4.000000,4.000000,4.000000,4.000000,4.000000,4.000000,100.000000,1.000000,0.000000,0.690147,-0.096313,-0.716675,0.028259,1.008804,-0.197269,-0.037110,-18.692303,-91.517509,18.393225,,,,,,,,,,,,,,,,,,,,,,,,,,,,,,,,,,,,,,,,,,,,,,,,,,,,,,,,,,,,,,,,,,,,,,,,,,,,,,,,,,,,,,,,,,,,,,,,,,,,,
1606509174.284138,5.000000,0.000000,4200.384766,4190.128418,4201.282227,4191.922852,4186.025879,4201.153809,4199.615234,4210.384766,4213.461426,4232.436035,4201.025879,4186.538574,4208.589844,4204.102539,3261.000000,4.000000,,,,0.000000,4.000000,4.000000,4.000000,4.000000,4.000000,4.000000,4.000000,4.000000,4.000000,4.000000,4.000000,4.000000,4.000000,4.000000,100.000000,,,,,,,,,,,,,,,,,,,,,,,,,,,,,,,,,,,,,,,,,,,,,,,,,,,,,,,,,,,,,,,,,,,,,,,,,,,,,,,,,,,,,,,,,,,,,,,,,,,,,,,,,,,,,,,,,
1606509174.291935,6.000000,0.000000,4185.512695,4191.153809,4191.025879,4187.563965,4184.102539,4200.641113,4198.333496,4198.846191,4205.128418,4221.794922,4183.846191,4188.717773,4206.153809,4199.358887,2927.000000,4.000000,,,,0.000000,4.000000,4.000000,4.000000,4.000000,4.000000,4.000000,4.000000,4.000000,4.000000,4.000000,4.000000,4.000000,4.000000,4.000000,100.000000,,,,,,,,,,,,,,,,,,,,,,,,,,,,,,,,,,,,,,,,,,,,3.640551,2.434211,1.107100,0.608606,0.954829,3.557863,1.864998,0.623579,0.525650,0.412609,1.676285,2.614441,0.700324,0.689800,1.098463,1.721239,1.575511,1.537873,0.655132,0.622674,0.756543,0.807395,0.479041,0.657886,0.511401,0.253770,0.313536,0.142804,0.261643,0.191068,0.325156,1.319101,0.251788,0.489400,0.433778,0.683891,2.006094,0.654939,0.347267,0.385416,1.892898,3.019993,1.182918,0.752689,0.679988,7.178946,4.535711,1.786661,3.065794,1.054895,1.355879,3.136121,0.987192,2.225862,1.820590,1.968145,2.582976,1.296320,1.243703,1.214886,1.999367,1.971834,1.863777,1.242002,0.501788,1.385628,2.673390,1.135951,0.544323,0.672233
1606509174.299732,7.000000,0.000000,4185.641113,4197.179688,4193.974121,4196.153809,4184.487305,4202.563965,4199.615234,4199.871582,4202.692383,4210.000000,4187.820313,4180.897461,4198.077148,4195.512695,2585.000000,4.000000,,,,0.000000,4.000000,4.000000,4.000000,4.000000,4.000000,4.000000,4.000000,4.000000,4.000000,4.000000,4.000000,4.000000,4.000000,4.000000,100.000000,,,,,,,,,,,,,,,,,,,,,,,,,,,,,,,,,,,,,,,,,,,,,,,,,,,,,,,,,,,,,,,,,,,,,,,,,,,,,,,,,,,,,,,,,,,,,,,,,,,,,,,,,,,,,,,,,
1606509174.307530,8.000000,0.000000,4200.769043,4201.153809,4201.666504,4206.410156,4194.230957,4208.205078,4202.179688,4208.974121,4207.436035,4215.769043,4205.769043,4183.717773,4208.077148,4201.538574,3270.000000,4.000000,,,,0.000000,4.000000,4.000000,4.000000,4.000000,4.000000,4.000000,4.000000,4.000000,4.000000,4.000000,4.000000,4.000000,4.000000,4.000000,100.000000,2.000000,0.000000,0.690644,-0.096741,-0.716125,0.028564,1.017105,-0.183597,-0.038087,-17.795071,-90.321205,18.692303,,,,,,,,,,,,,,,,,,,,,,,,,,,,,,,,,,,,,,,,,,,,,,,,,,,,,,,,,,,,,,,,,,,,,,,,,,,,,,,,,,,,,,,,,,,,,,,,,,,,,
1606509174.315327,9.000000,0.000000,4195.897461,4201.794922,4192.051270,4199.230957,4194.230957,4207.051270,4200.384766,4208.846191,4209.615234,4222.563965,4196.153809,4190.000000,4214.102539,4201.666504,3558.000000,4.000000,,,,0.000000,4.000000,4.000000,4.000000,4.000000,4.000000,4.000000,4.000000,4.000000,4.000000,4.000000,4.000000,4.000000,4.000000,4.000000,100.000000,,,,,,,,,,,,,,,,,,,,,,,,,,,,,,,,,,,,,,,,,,,,,,,,,,,,,,,,,,,,,,,,,,,,,,,,,,,,,,,,,,,,,,,,,,,,,,,,,,,,,,,,,,,,,,,,,
1606509174.323125,10.000000,0.000000,4182.563965,4199.102539,4182.948730,4188.205078,4193.589844,4201.666504,4198.717773,4201.410156,4202.820313,4210.769043,4185.512695,4186.666504,4205.128418,4199.230957,3294.000000,4.000000,,,,0.000000,4.000000,4.000000,4.000000,4.000000,4.000000,4.000000,4.000000,4.000000,4.000000,4.000000,4.000000,4.000000,4.000000,4.000000,100.000000,,,,,,,,,,,,,,,,,,,,,,,,,,,,,,,,,,,,,,,,,,,,,,,,,,,,,,,,,,,,,,,,,,,,,,,,,,,,,,,,,,,,,,,,,,,,,,,,,,,,,,,,,,,,,,,,,
1606509174.330922,11.000000,0.000000,4184.487305,4191.410156,4187.820313,4187.051270,4199.487305,4202.436035,4203.205078,4200.384766,4190.641113,4186.666504,4179.743652,4191.666504,4191.922852,4199.230957,3309.000000,4.000000,,,,0.000000,4.000000,4.000000,4.000000,4.000000,4.000000,4.000000,4.000000,4.000000,4.000000,4.000000,4.000000,4.000000,4.000000,4.000000,100.000000,,,,,,,,,,,,,,,,,,,,,,,,,,,,,,,,,,,,,,,,,,,,,,,,,,,,,,,,,,,,,,,,,,,,,,,,,,,,,,,,,,,,,,,,,,,,,,,,,,,,,,,,,,,,,,,,,
1606509174.338620,12.000000,0.000000,4188.589844,4192.692383,4187.948730,4187.179688,4197.051270,4204.615234,4202.820313,4204.230957,4192.563965,4185.897461,4165.897461,4205.384766,4190.256348,4196.794922,3326.000000,4.000000,,,,0.000000,4.000000,4.000000,4.000000,4.000000,4.000000,4.000000,4.000000,4.000000,4.000000,4.000000,4.000000,4.000000,4.000000,4.000000,100.000000,3.000000,0.000000,0.691037,-0.097046,-0.715698,0.028748,1.005386,-0.181643,-0.028321,-19.589533,-90.919357,18.094149,,,,,,,,,,,,,,,,,,,,,,,,,,,,,,,,,,,,,,,,,,,,,,,,,,,,,,,,,,,,,,,,,,,,,,,,,,,,,,,,,,,,,,,,,,,,,,,,,,,,,
1606509174.346418,13.000000,0.000000,4188.461426,4197.051270,4185.512695,4184.230957,4182.179688,4203.846191,4198.846191,4206.282227,4205.000000,4210.128418,4177.563965,4200.256348,4198.333496,4200.897461,3271.000000,4.000000,,,,0.000000,4.000000,4.000000,4.000000,4.000000,4.000000,4.000000,4.000000,4.000000,4.000000,4.000000,4.000000,4.000000,4.000000,4.000000,100.000000,,,,,,,,,,,,,,,,,,,,,,,,,,,,,,,,,,,,,,,,,,,,,,,,,,,,,,,,,,,,,,,,,,,,,,,,,,,,,,,,,,,,,,,,,,,,,,,,,,,,,,,,,,,,,,,,,
1606509174.354216,14.000000,0.000000,4184.102539,4191.538574,4187.436035,4184.102539,4173.846191,4204.487305,4203.846191,4204.230957,4200.897461,4214.230957,4202.051270,4188.077148,4204.487305,4204.358887,3294.000000,4.000000,,,,0.000000,4.000000,4.000000,4.000000,4.000000,4.000000,4.000000,4.000000,4.000000,4.000000,4.000000,4.000000,4.000000,4.000000,4.000000,100.000000,,,,,,,,,,,,,,,,,,,,,,,,,,,,,,,,,,,,,,,,,,,,,,,,,,,,,,,,,,,,,,,,,,,,,,,,,,,,,,,,,,,,,,,,,,,,,,,,,,,,,,,,,,,,,,,,,
1606509174.362013,15.000000,0.000000,4170.641113,4183.846191,4182.563965,4186.794922,4187.692383,4201.538574,4203.974121,4193.974121,4177.820313,4181.922852,4178.333496,4188.333496,4195.641113,4190.128418,3309.000000,4.000000,,,,0.000000,4.000000,4.000000,4.000000,4.000000,4.000000,4.000000,4.000000,4.000000,4.000000,4.000000,4.000000,4.000000,4.000000,4.000000,100.000000,,,,,,,,,,,,,,,,,,,,,,,,,,,,,,,,,,,,,,,,,,,,,,,,,,,,,,,,,,,,,,,,,,,,,,,,,,,,,,,,,,,,,,,,,,,,,,,,,,,,,,,,,,,,,,,,,
1606509174.369811,16.000000,0.000000,4169.358887,4185.256348,4177.563965,4185.641113,4203.461426,4203.205078,4195.000000,4188.846191,4173.077148,4167.307617,4156.025879,4178.974121,4188.333496,4177.051270,0.000000,4.000000,,,,0.000000,4.000000,4.000000,4.000000,4.000000,4.000000,4.000000,4.000000,4.000000,4.000000,4.000000,4.000000,4.000000,4.000000,4.000000,100.000000,4.000000,0.000000,0.691468,-0.097229,-0.715271,0.028381,1.012711,-0.194827,-0.027344,-18.692303,-91.517509,18.393225,,,,,,,,,,,,,,,,,,,,,,,,,,,,,,,,,,,,,,,,,,,,,,,,,,,,,,,,,,,,,,,,,,,,,,,,,,,,,,,,,,,,,,,,,,,,,,,,,,,,,
1606509174.377609,17.000000,0.000000,4186.538574,4193.717773,4186.282227,4188.461426,4197.179688,4207.692383,4195.769043,4202.307617,4201.025879,4198.461426,4186.153809,4186.282227,4202.820313,4190.512695,0.000000,4.000000,,,,0.000000,4.000000,4.000000,4.000000,4.000000,4.000000,4.000000,4.000000,4.000000,4.000000,4.000000,4.000000,4.000000,4.000000,4.000000,100.000000,,,,,,,,,,,,,,,,,,,,,,,,,,,,,,,,,,,,,,,,,,,,,,,,,,,,,,,,,,,,,,,,,,,,,,,,,,,,,,,,,,,,,,,,,,,,,,,,,,,,,,,,,,,,,,,,,
1606509174.385407,18.000000,0.000000,4188.077148,4201.922852,4197.051270,4197.563965,4181.794922,4207.179688,4210.256348,4213.974121,4220.769043,4223.205078,4201.794922,4219.871582,4211.410156,4206.153809,0.000000,4.000000,,,,0.000000,4.000000,4.000000,4.000000,4.000000,4.000000,4.000000,4.000000,4.000000,4.000000,4.000000,4.000000,4.000000,4.000000,4.000000,100.000000,,,,,,,,,,,,,,,,,,,,,,,,,,,,,,,,,,,,,,,,,,,,,,,,,,,,,,,,,,,,,,,,,,,,,,,,,,,,,,,,,,,,,,,,,,,,,,,,,,,,,,,,,,,,,,,,,
