title:vishal nback trial 4, start timestamp:1606509542.069655, stop timestamp:1606509596.335332, headset type:EPOCPLUS, headset serial:4A2C14BB, headset firmware:634, channels:151, sampling rate:eeg_128;mot_32;pm_0.1;pow_8, samples:6964      , version:2.0
Timestamp,EEG.Counter,EEG.Interpolated,EEG.AF3,EEG.F7,EEG.F3,EEG.FC5,EEG.T7,EEG.P7,EEG.O1,EEG.O2,EEG.P8,EEG.T8,EEG.FC6,EEG.F4,EEG.F8,EEG.AF4,EEG.RawCq,EEG.Battery,MarkerIndex,MarkerType,MarkerValueInt,EEG.MarkerHardware,CQ.AF3,CQ.F7,CQ.F3,CQ.FC5,CQ.T7,CQ.P7,CQ.O1,CQ.O2,CQ.P8,CQ.T8,CQ.FC6,CQ.F4,CQ.F8,CQ.AF4,CQ.Overall,MOT.CounterMems,MOT.InterpolatedMems,MOT.Q0,MOT.Q1,MOT.Q2,MOT.Q3,MOT.AccX,MOT.AccY,MOT.AccZ,MOT.MagX,MOT.MagY,MOT.MagZ,PM.Engagement.IsActive,PM.Engagement.Scaled,PM.Engagement.Raw,PM.Engagement.Min,PM.Engagement.Max,PM.Excitement.IsActive,PM.Excitement.Scaled,PM.Excitement.Raw,PM.Excitement.Min,PM.Excitement.Max,PM.LongTermExcitement,PM.Stress.IsActive,PM.Stress.Scaled,PM.Stress.Raw,PM.Stress.Min,PM.Stress.Max,PM.Relaxation.IsActive,PM.Relaxation.Scaled,PM.Relaxation.Raw,PM.Relaxation.Min,PM.Relaxation.Max,PM.Interest.IsActive,PM.Interest.Scaled,PM.Interest.Raw,PM.Interest.Min,PM.Interest.Max,PM.Focus.IsActive,PM.Focus.Scaled,PM.Focus.Raw,PM.Focus.Min,PM.Focus.Max,POW.AF3.Theta,POW.AF3.Alpha,POW.AF3.BetaL,POW.AF3.BetaH,POW.AF3.Gamma,POW.F7.Theta,POW.F7.Alpha,POW.F7.BetaL,POW.F7.BetaH,POW.F7.Gamma,POW.F3.Theta,POW.F3.Alpha,POW.F3.BetaL,POW.F3.BetaH,POW.F3.Gamma,POW.FC5.Theta,POW.FC5.Alpha,POW.FC5.BetaL,POW.FC5.BetaH,POW.FC5.Gamma,POW.T7.Theta,POW.T7.Alpha,POW.T7.BetaL,POW.T7.BetaH,POW.T7.Gamma,POW.P7.Theta,POW.P7.Alpha,POW.P7.BetaL,POW.P7.BetaH,POW.P7.Gamma,POW.O1.Theta,POW.O1.Alpha,POW.O1.BetaL,POW.O1.BetaH,POW.O1.Gamma,POW.O2.Theta,POW.O2.Alpha,POW.O2.BetaL,POW.O2.BetaH,POW.O2.Gamma,POW.P8.Theta,POW.P8.Alpha,POW.P8.BetaL,POW.P8.BetaH,POW.P8.Gamma,POW.T8.Theta,POW.T8.Alpha,POW.T8.BetaL,POW.T8.BetaH,POW.T8.Gamma,POW.FC6.Theta,POW.FC6.Alpha,POW.FC6.BetaL,POW.FC6.BetaH,POW.FC6.Gamma,POW.F4.Theta,POW.F4.Alpha,POW.F4.BetaL,POW.F4.BetaH,POW.F4.Gamma,POW.F8.Theta,POW.F8.Alpha,POW.F8.BetaL,POW.F8.BetaH,POW.F8.Gamma,POW.AF4.Theta,POW.AF4.Alpha,POW.AF4.BetaL,POW.AF4.BetaH,POW.AF4.Gamma
1606509542.069655,124.000000,0.000000,4202.051270,4174.102539,4209.102539,4191.794922,4215.769043,4203.589844,4210.256348,4202.692383,4206.153809,4204.871582,4216.153809,4197.179688,4219.487305,4203.846191,3306.000000,4.000000,,,,0.000000,4.000000,4.000000,4.000000,4.000000,4.000000,4.000000,4.000000,4.000000,4.000000,4.000000,4.000000,4.000000,4.000000,4.000000,100.000000,31.000000,0.000000,0.711680,-0.023804,-0.695129,0.098694,1.003922,-0.158694,0.024903,-17.795071,-85.835052,15.701533,,,,,,,,,,,,,,,,,,,,,,,,,,,,,,,,,,,,,,,,,,,,,,,,,,,,,,,,,,,,,,,,,,,,,,,,,,,,,,,,,,,,,,,,,,,,,,,,,,,,,
1606509542.077353,125.000000,0.000000,4180.769043,4161.025879,4194.743652,4177.820313,4210.897461,4206.666504,4206.666504,4195.384766,4196.410156,4182.820313,4194.743652,4198.333496,4197.563965,4184.487305,3277.000000,4.000000,,,,0.000000,4.000000,4.000000,4.000000,4.000000,4.000000,4.000000,4.000000,4.000000,4.000000,4.000000,4.000000,4.000000,4.000000,4.000000,100.000000,,,,,,,,,,,,,,,,,,,,,,,,,,,,,,,,,,,,,,,,,,,,,,,,,,,,,,,,,,,,,,,,,,,,,,,,,,,,,,,,,,,,,,,,,,,,,,,,,,,,,,,,,,,,,,,,,
1606509542.085151,126.000000,0.000000,4186.922852,4172.436035,4198.205078,4181.666504,4211.025879,4208.589844,4200.512695,4194.230957,4189.102539,4177.179688,4179.615234,4202.563965,4183.077148,4179.487305,3322.000000,4.000000,,,,0.000000,4.000000,4.000000,4.000000,4.000000,4.000000,4.000000,4.000000,4.000000,4.000000,4.000000,4.000000,4.000000,4.000000,4.000000,100.000000,,,,,,,,,,,,,,,,,,,,,,,,,,,,,,,,,,,,,,,,,,,,,,,,,,,,,,,,,,,,,,,,,,,,,,,,,,,,,,,,,,,,,,,,,,,,,,,,,,,,,,,,,,,,,,,,,
1606509542.092949,127.000000,0.000000,4213.589844,4194.871582,4216.922852,4194.743652,4219.358887,4201.538574,4194.487305,4198.205078,4200.641113,4203.589844,4206.282227,4207.436035,4205.769043,4198.333496,53.000000,4.000000,,,,0.000000,4.000000,4.000000,4.000000,4.000000,4.000000,4.000000,4.000000,4.000000,4.000000,4.000000,4.000000,4.000000,4.000000,4.000000,100.000000,,,,,,,,,,,,,,,,,,,,,,,,,,,,,,,,,,,,,,,,,,,,,,,,,,,,,,,,,,,,,,,,,,,,,,,,,,,,,,,,,,,,,,,,,,,,,,,,,,,,,,,,,,,,,,,,,
1606509542.100649,0.000000,0.000000,4223.846191,4205.384766,4225.384766,4204.871582,4225.641113,4200.384766,4196.025879,4199.487305,4210.512695,4213.717773,4221.666504,4211.794922,4213.205078,4203.205078,3387.000000,4.000000,,,,0.000000,4.000000,4.000000,4.000000,4.000000,4.000000,4.000000,4.000000,4.000000,4.000000,4.000000,4.000000,4.000000,4.000000,4.000000,100.000000,0.000000,0.000000,0.711745,-0.023621,-0.695068,0.098694,1.011246,-0.163577,0.038575,-18.243687,-87.330437,16.000610,,,,,,,,,,,,,,,,,,,,,,,,,,,,,,,,,,,,,,,,,,,,,,,,,,,,,,,,,,,,,,,,,,,,,,,,,,,,,,,,,,,,,,,,,,,,,,,,,,,,,
1606509542.108449,1.000000,0.000000,4215.384766,4200.000000,4217.692383,4208.974121,4216.538574,4203.205078,4201.410156,4200.384766,4205.000000,4195.128418,4192.051270,4199.230957,4182.051270,4182.436035,3511.000000,4.000000,,,,0.000000,4.000000,4.000000,4.000000,4.000000,4.000000,4.000000,4.000000,4.000000,4.000000,4.000000,4.000000,4.000000,4.000000,4.000000,100.000000,,,,,,,,,,,,,,,,,,,,,,,,,,,,,,,,,,,,,,,,,,,,,,,,,,,,,,,,,,,,,,,,,,,,,,,,,,,,,,,,,,,,,,,,,,,,,,,,,,,,,,,,,,,,,,,,,
1606509542.116248,2.000000,0.000000,4209.871582,4197.436035,4209.743652,4207.051270,4210.128418,4201.794922,4201.666504,4199.102539,4197.563965,4186.282227,4180.000000,4194.615234,4171.666504,4178.077148,3543.000000,4.000000,,,,0.000000,4.000000,4.000000,4.000000,4.000000,4.000000,4.000000,4.000000,4.000000,4.000000,4.000000,4.000000,4.000000,4.000000,4.000000,100.000000,,,,,,,,,,,,,,,,,,,,,,,,,,,,,,,,,,,,,,,,,,,,,,,,,,,,,,,,,,,,,,,,,,,,,,,,,,,,,,,,,,,,,,,,,,,,,,,,,,,,,,,,,,,,,,,,,
1606509542.124048,3.000000,0.000000,4205.000000,4201.025879,4210.769043,4204.615234,4216.794922,4209.358887,4206.794922,4195.769043,4197.051270,4193.077148,4201.666504,4203.461426,4189.102539,4191.025879,3423.000000,4.000000,,,,0.000000,4.000000,4.000000,4.000000,4.000000,4.000000,4.000000,4.000000,4.000000,4.000000,4.000000,4.000000,4.000000,4.000000,4.000000,100.000000,,,,,,,,,,,,,,,,,,,,,,,,,,,,,,,,,,,,,,,,,,,,,,,,,,,,,,,,,,,,,,,,,,,,,,,,,,,,,,,,,,,,,,,,,,,,,,,,,,,,,,,,,,,,,,,,,
1606509542.131848,4.000000,0.000000,4202.948730,4203.333496,4212.436035,4200.769043,4214.743652,4215.512695,4213.333496,4204.487305,4205.512695,4204.358887,4206.025879,4207.051270,4188.333496,4189.871582,3389.000000,4.000000,,,,0.000000,4.000000,4.000000,4.000000,4.000000,4.000000,4.000000,4.000000,4.000000,4.000000,4.000000,4.000000,4.000000,4.000000,4.000000,100.000000,1.000000,0.000000,0.711737,-0.023376,-0.695068,0.098816,1.017594,-0.163577,0.025879,-17.196918,-87.479973,17.795071,,,,,,,,,,,,,,,,,,,,,,,,,,,,,,,,,,,,,,,,,,,,,,,,,,,,,,,,,,,,,,,,,,,,,,,,,,,,,,,,,,,,,,,,,,,,,,,,,,,,,
1606509542.139648,5.000000,0.000000,4201.666504,4199.230957,4205.128418,4193.205078,4214.487305,4203.589844,4197.051270,4208.461426,4208.077148,4198.461426,4193.846191,4201.666504,4170.000000,4176.410156,3249.000000,4.000000,,,,0.000000,4.000000,4.000000,4.000000,4.000000,4.000000,4.000000,4.000000,4.000000,4.000000,4.000000,4.000000,4.000000,4.000000,4.000000,100.000000,,,,,,,,,,,,,,,,,,,,,,,,,,,,,,,,,,,,,,,,,,,,,,,,,,,,,,,,,,,,,,,,,,,,,,,,,,,,,,,,,,,,,,,,,,,,,,,,,,,,,,,,,,,,,,,,,
1606509542.147448,6.000000,0.000000,4195.384766,4190.641113,4195.897461,4191.538574,4228.205078,4195.769043,4183.077148,4188.333496,4190.384766,4172.820313,4178.846191,4183.205078,4165.641113,4168.846191,2916.000000,4.000000,,,,0.000000,4.000000,4.000000,4.000000,4.000000,4.000000,4.000000,4.000000,4.000000,4.000000,4.000000,4.000000,4.000000,4.000000,4.000000,100.000000,,,,,,,,,,,,,,,,,,,,,,,,,,,,,,,,,,,,,,,,,,,,3.621708,4.291480,1.858841,0.730943,0.515058,1.689728,1.444906,0.578957,0.358861,0.325249,2.070142,2.564880,1.501474,0.456502,0.423746,1.316865,1.370190,0.887864,0.529276,0.462447,0.271691,0.571817,0.838875,0.249412,0.606238,0.407788,0.409681,0.210522,0.301518,0.235169,0.470301,0.631304,0.362678,0.491654,0.481187,0.446323,1.062247,0.807055,0.220723,0.623617,1.205447,2.887834,1.597777,0.703192,1.224713,2.183618,3.819609,1.963996,0.739788,1.717550,1.957723,2.860034,1.313976,1.153205,1.334377,1.970765,3.701717,1.665910,1.024099,1.042377,2.716491,3.122669,1.431485,1.275552,1.030724,3.669474,3.948748,1.977022,0.783020,0.718405
1606509542.155248,7.000000,0.000000,4186.538574,4185.128418,4196.410156,4199.102539,4227.820313,4202.692383,4193.461426,4182.563965,4179.230957,4166.282227,4165.641113,4178.205078,4170.000000,4167.307617,2594.000000,4.000000,,,,0.000000,4.000000,4.000000,4.000000,4.000000,4.000000,4.000000,4.000000,4.000000,4.000000,4.000000,4.000000,4.000000,4.000000,4.000000,100.000000,,,,,,,,,,,,,,,,,,,,,,,,,,,,,,,,,,,,,,,,,,,,,,,,,,,,,,,,,,,,,,,,,,,,,,,,,,,,,,,,,,,,,,,,,,,,,,,,,,,,,,,,,,,,,,,,,
1606509542.163048,8.000000,0.000000,4183.717773,4183.974121,4199.871582,4203.205078,4213.589844,4210.384766,4206.410156,4203.589844,4194.615234,4181.666504,4180.384766,4197.307617,4170.512695,4170.897461,3277.000000,4.000000,,,,0.000000,4.000000,4.000000,4.000000,4.000000,4.000000,4.000000,4.000000,4.000000,4.000000,4.000000,4.000000,4.000000,4.000000,4.000000,100.000000,2.000000,0.000000,0.711672,-0.023254,-0.695129,0.098877,1.012223,-0.180667,0.038087,-16.748302,-85.236893,16.150148,,,,,,,,,,,,,,,,,,,,,,,,,,,,,,,,,,,,,,,,,,,,,,,,,,,,,,,,,,,,,,,,,,,,,,,,,,,,,,,,,,,,,,,,,,,,,,,,,,,,,
1606509542.170748,9.000000,0.000000,4194.615234,4191.538574,4197.948730,4201.410156,4216.282227,4210.641113,4203.974121,4205.128418,4205.256348,4191.282227,4205.128418,4206.538574,4177.692383,4178.974121,3580.000000,4.000000,,,,0.000000,4.000000,4.000000,4.000000,4.000000,4.000000,4.000000,4.000000,4.000000,4.000000,4.000000,4.000000,4.000000,4.000000,4.000000,100.000000,,,,,,,,,,,,,,,,,,,,,,,,,,,,,,,,,,,,,,,,,,,,,,,,,,,,,,,,,,,,,,,,,,,,,,,,,,,,,,,,,,,,,,,,,,,,,,,,,,,,,,,,,,,,,,,,,
1606509542.178547,10.000000,0.000000,4209.102539,4203.077148,4205.512695,4200.256348,4231.410156,4203.974121,4200.641113,4202.307617,4205.512695,4205.897461,4205.897461,4200.128418,4197.436035,4190.000000,3283.000000,4.000000,,,,0.000000,4.000000,4.000000,4.000000,4.000000,4.000000,4.000000,4.000000,4.000000,4.000000,4.000000,4.000000,4.000000,4.000000,4.000000,100.000000,,,,,,,,,,,,,,,,,,,,,,,,,,,,,,,,,,,,,,,,,,,,,,,,,,,,,,,,,,,,,,,,,,,,,,,,,,,,,,,,,,,,,,,,,,,,,,,,,,,,,,,,,,,,,,,,,
1606509542.186347,11.000000,0.000000,4210.512695,4206.282227,4216.153809,4202.436035,4236.794922,4199.102539,4203.589844,4218.333496,4217.179688,4220.897461,4197.179688,4209.615234,4203.974121,4199.615234,3301.000000,4.000000,,,,0.000000,4.000000,4.000000,4.000000,4.000000,4.000000,4.000000,4.000000,4.000000,4.000000,4.000000,4.000000,4.000000,4.000000,4.000000,100.000000,,,,,,,,,,,,,,,,,,,,,,,,,,,,,,,,,,,,,,,,,,,,,,,,,,,,,,,,,,,,,,,,,,,,,,,,,,,,,,,,,,,,,,,,,,,,,,,,,,,,,,,,,,,,,,,,,
1606509542.194147,12.000000,0.000000,4205.000000,4202.563965,4215.256348,4210.641113,4225.897461,4207.948730,4209.487305,4218.205078,4225.000000,4212.307617,4205.897461,4219.743652,4190.769043,4198.717773,3358.000000,4.000000,,,,0.000000,4.000000,4.000000,4.000000,4.000000,4.000000,4.000000,4.000000,4.000000,4.000000,4.000000,4.000000,4.000000,4.000000,4.000000,100.000000,3.000000,0.000000,0.711313,-0.023315,-0.695496,0.098877,1.021500,-0.179202,0.037110,-16.449226,-88.377205,15.402456,,,,,,,,,,,,,,,,,,,,,,,,,,,,,,,,,,,,,,,,,,,,,,,,,,,,,,,,,,,,,,,,,,,,,,,,,,,,,,,,,,,,,,,,,,,,,,,,,,,,,
1606509542.201947,13.000000,0.000000,4198.077148,4194.230957,4204.102539,4207.436035,4202.307617,4214.230957,4217.948730,4201.794922,4211.282227,4195.512695,4208.846191,4202.692383,4178.077148,4181.794922,3291.000000,4.000000,,,,0.000000,4.000000,4.000000,4.000000,4.000000,4.000000,4.000000,4.000000,4.000000,4.000000,4.000000,4.000000,4.000000,4.000000,4.000000,100.000000,,,,,,,,,,,,,,,,,,,,,,,,,,,,,,,,,,,,,,,,,,,,,,,,,,,,,,,,,,,,,,,,,,,,,,,,,,,,,,,,,,,,,,,,,,,,,,,,,,,,,,,,,,,,,,,,,
1606509542.209747,14.000000,0.000000,4186.153809,4185.128418,4189.102539,4189.871582,4197.436035,4205.641113,4212.948730,4200.384766,4204.358887,4203.077148,4195.641113,4179.487305,4179.871582,4171.025879,3283.000000,4.000000,,,,0.000000,4.000000,4.000000,4.000000,4.000000,4.000000,4.000000,4.000000,4.000000,4.000000,4.000000,4.000000,4.000000,4.000000,4.000000,100.000000,,,,,,,,,,,,,,,,,,,,,,,,,,,,,,,,,,,,,,,,,,,,,,,,,,,,,,,,,,,,,,,,,,,,,,,,,,,,,,,,,,,,,,,,,,,,,,,,,,,,,,,,,,,,,,,,,
1606509542.217547,15.000000,0.000000,4181.282227,4182.820313,4184.487305,4183.589844,4219.871582,4199.615234,4198.717773,4208.077148,4215.897461,4217.563965,4190.897461,4179.230957,4184.871582,4181.410156,3301.000000,4.000000,,,,0.000000,4.000000,4.000000,4.000000,4.000000,4.000000,4.000000,4.000000,4.000000,4.000000,4.000000,4.000000,4.000000,4.000000,4.000000,100.000000,,,,,,,,,,,,,,,,,,,,,,,,,,,,,,,,,,,,,,,,,,,,,,,,,,,,,,,,,,,,,,,,,,,,,,,,,,,,,,,,,,,,,,,,,,,,,,,,,,,,,,,,,,,,,,,,,
1606509542.225347,16.000000,0.000000,4195.897461,4190.384766,4195.769043,4188.589844,4225.769043,4205.000000,4205.000000,4212.948730,4223.333496,4209.358887,4200.897461,4198.589844,4185.128418,4190.000000,0.000000,4.000000,,,,0.000000,4.000000,4.000000,4.000000,4.000000,4.000000,4.000000,4.000000,4.000000,4.000000,4.000000,4.000000,4.000000,4.000000,4.000000,100.000000,4.000000,0.000000,0.711015,-0.023560,-0.695801,0.098816,1.007828,-0.178714,0.023438,-16.150148,-87.031357,17.495995,,,,,,,,,,,,,,,,,,,,,,,,,,,,,,,,,,,,,,,,,,,,,,,,,,,,,,,,,,,,,,,,,,,,,,,,,,,,,,,,,,,,,,,,,,,,,,,,,,,,,
1606509542.233146,17.000000,0.000000,4199.358887,4187.179688,4198.974121,4187.179688,4207.563965,4211.666504,4215.000000,4206.794922,4213.461426,4196.282227,4204.743652,4196.538574,4191.282227,4184.487305,0.000000,4.000000,,,,0.000000,4.000000,4.000000,4.000000,4.000000,4.000000,4.000000,4.000000,4.000000,4.000000,4.000000,4.000000,4.000000,4.000000,4.000000,100.000000,,,,,,,,,,,,,,,,,,,,,,,,,,,,,,,,,,,,,,,,,,,,,,,,,,,,,,,,,,,,,,,,,,,,,,,,,,,,,,,,,,,,,,,,,,,,,,,,,,,,,,,,,,,,,,,,,
1606509542.240844,18.000000,0.000000,4190.256348,4179.871582,4192.179688,4189.487305,4204.102539,4210.897461,4204.102539,4190.256348,4201.794922,4203.846191,4185.897461,4188.461426,4195.256348,4181.794922,0.000000,4.000000,,,,0.000000,4.000000,4.000000,4.000000,4.000000,4.000000,4.000000,4.000000,4.000000,4.000000,4.000000,4.000000,4.000000,4.000000,4.000000,100.000000,,,,,,,,,,,,,,,,,,,,,,,,,,,,,,,,,,,,,,,,,,,,,,,,,,,,,,,,,,,,,,,,,,,,,,,,,,,,,,,,,,,,,,,,,,,,,,,,,,,,,,,,,,,,,,,,,
1606509542.248641,19.000000,0.000000,4199.487305,4194.230957,4199.615234,4208.333496,4221.410156,4207.307617,4193.077148,4187.307617,4203.846191,4210.769043,4179.743652,4193.461426,4189.358887,4185.128418,0.000000,4.000000,,,,0.000000,4.000000,4.000000,4.000000,4.000000,4.000000,4.000000,4.000000,4.000000,4.000000,4.000000,4.000000,4.000000,4.000000,4.000000,100.000000,,,,,,,,,,,,,,,,,,,,,,,,,,,,,,,,,,,,,,,,,,,,,,,,,,,,,,,,,,,,,,,,,,,,,,,,,,,,,,,,,,,,,,,,,,,,,,,,,,,,,,,,,,,,,,,,,
1606509542.256341,20.000000,0.000000,4200.256348,4196.794922,4203.077148,4206.538574,4225.384766,4208.461426,4197.948730,4190.128418,4197.563965,4188.974121,4189.871582,4195.512695,4172.820313,4178.333496,0.000000,4.000000,,,,0.000000,4.000000,4.000000,4.000000,4.000000,4.000000,4.000000,4.000000,4.000000,4.000000,4.000000,4.000000,4.000000,4.000000,4.000000,100.000000,5.000000,0.000000,0.711155,-0.023682,-0.695679,0.098633,1.007828,-0.176272,0.015625,-17.944611,-87.479973,15.851072,,,,,,,,,,,,,,,,,,,,,,,,,,,,,,,,,,,,,,,,,,,,,,,,,,,,,,,,,,,,,,,,,,,,,,,,,,,,,,,,,,,,,,,,,,,,,,,,,,,,,
1606509542.264141,21.000000,0.000000,4170.641113,4169.102539,4182.307617,4176.025879,4215.769043,4218.205078,4203.077148,4182.179688,4171.153809,4158.717773,4181.922852,4178.333496,4150.641113,4158.077148,0.000000,4.000000,,,,0.000000,4.000000,4.000000,4.000000,4.000000,4.000000,4.000000,4.000000,4.000000,4.000000,4.000000,4.000000,4.000000,4.000000,4.000000,100.000000,,,,,,,,,,,,,,,,,,,,,,,,,,,,,,,,,,,,,,,,,,,,,,,,,,,,,,,,,,,,,,,,,,,,,,,,,,,,,,,,,,,,,,,,,,,,,,,,,,,,,,,,,,,,,,,,,
1606509542.271941,22.000000,0.000000,4165.000000,4165.769043,4175.897461,4174.230957,4221.025879,4222.179688,4199.743652,4186.538574,4175.128418,4164.615234,4179.102539,4158.205078,4158.589844,4155.512695,0.000000,4.000000,,,,0.000000,4.000000,4.000000,4.000000,4.000000,4.000000,4.000000,4.000000,4.000000,4.000000,4.000000,4.000000,4.000000,4.000000,4.000000,100.000000,,,,,,,,,,,,,,,,,,,,,,,,,,,,,,,,,,,,,,,,,,,,3.355943,4.290178,2.123488,0.808324,0.558801,1.781116,1.429221,0.691962,0.394760,0.329699,1.940813,2.519593,1.659205,0.514925,0.443157,1.256331,1.307925,0.944729,0.593470,0.436959,0.230432,0.626786,0.942369,0.206614,0.567683,0.474400,0.353114,0.173813,0.322201,0.222771,0.392472,0.556515,0.388149,0.447912,0.512811,0.369287,1.166633,0.672408,0.201773,0.631464,1.045783,2.921166,1.422763,0.666655,1.204171,2.067804,3.908675,2.087205,0.786161,1.649350,1.905915,3.034896,1.679894,1.102990,1.274304,1.997415,4.021223,1.918682,1.065576,1.088649,2.879619,3.275482,1.648176,1.239874,1.060125,3.724092,3.812922,2.137866,0.885780,0.746537
1606509542.279742,23.000000,0.000000,4205.256348,4198.846191,4204.871582,4208.974121,4225.128418,4205.769043,4196.025879,4205.384766,4214.358887,4199.102539,4196.282227,4181.153809,4192.820313,4184.871582,0.000000,4.000000,,,,0.000000,4.000000,4.000000,4.000000,4.000000,4.000000,4.000000,4.000000,4.000000,4.000000,4.000000,4.000000,4.000000,4.000000,4.000000,100.000000,,,,,,,,,,,,,,,,,,,,,,,,,,,,,,,,,,,,,,,,,,,,,,,,,,,,,,,,,,,,,,,,,,,,,,,,,,,,,,,,,,,,,,,,,,,,,,,,,,,,,,,,,,,,,,,,,
1606509542.287542,24.000000,0.000000,4222.179688,4211.666504,4220.897461,4222.307617,4216.922852,4189.871582,4198.974121,4203.717773,4213.077148,4201.410156,4193.077148,4212.436035,4196.153809,4199.358887,0.000000,4.000000,,,,0.000000,4.000000,4.000000,4.000000,4.000000,4.000000,4.000000,4.000000,4.000000,4.000000,4.000000,4.000000,4.000000,4.000000,4.000000,100.000000,6.000000,0.000000,0.711240,-0.023682,-0.695618,0.098450,1.006851,-0.177249,0.027344,-16.150148,-85.535973,16.000610,,,,,,,,,,,,,,,,,,,,,,,,,,,,,,,,,,,,,,,,,,,,,,,,,,,,,,,,,,,,,,,,,,,,,,,,,,,,,,,,,,,,,,,,,,,,,,,,,,,,,
1606509542.295342,25.000000,0.000000,4205.128418,4201.025879,4207.436035,4208.846191,4220.128418,4190.256348,4196.666504,4188.205078,4187.051270,4178.077148,4180.384766,4203.205078,4177.179688,4185.128418,0.000000,4.000000,,,,0.000000,4.000000,4.000000,4.000000,4.000000,4.000000,4.000000,4.000000,4.000000,4.000000,4.000000,4.000000,4.000000,4.000000,4.000000,100.000000,,,,,,,,,,,,,,,,,,,,,,,,,,,,,,,,,,,,,,,,,,,,,,,,,,,,,,,,,,,,,,,,,,,,,,,,,,,,,,,,,,,,,,,,,,,,,,,,,,,,,,,,,,,,,,,,,
1606509542.303142,26.000000,0.000000,4202.948730,4199.871582,4203.461426,4204.487305,4221.153809,4195.897461,4183.589844,4187.436035,4192.692383,4179.871582,4197.820313,4182.948730,4186.538574,4180.897461,0.000000,4.000000,,,,0.000000,4.000000,4.000000,4.000000,4.000000,4.000000,4.000000,4.000000,4.000000,4.000000,4.000000,4.000000,4.000000,4.000000,4.000000,100.000000,,,,,,,,,,,,,,,,,,,,,,,,,,,,,,,,,,,,,,,,,,,,,,,,,,,,,,,,,,,,,,,,,,,,,,,,,,,,,,,,,,,,,,,,,,,,,,,,,,,,,,,,,,,,,,,,,
1606509542.310942,27.000000,0.000000,4209.615234,4201.282227,4210.128418,4204.615234,4199.102539,4197.820313,4190.512695,4200.256348,4206.410156,4199.102539,4211.410156,4195.256348,4196.410156,4188.333496,0.000000,4.000000,,,,0.000000,4.000000,4.000000,4.000000,4.000000,4.000000,4.000000,4.000000,4.000000,4.000000,4.000000,4.000000,4.000000,4.000000,4.000000,100.000000,,,,,,,,,,,,,,,,,,,,,,,,,,,,,,,,,,,,,,,,,,,,,,,,,,,,,,,,,,,,,,,,,,,,,,,,,,,,,,,,,,,,,,,,,,,,,,,,,,,,,,,,,,,,,,,,,
1606509542.318742,28.000000,0.000000,4199.871582,4198.205078,4204.487305,4198.461426,4190.897461,4200.256348,4212.179688,4207.436035,4205.897461,4206.282227,4197.948730,4209.743652,4184.487305,4186.666504,0.000000,4.000000,,,,0.000000,4.000000,4.000000,4.000000,4.000000,4.000000,4.000000,4.000000,4.000000,4.000000,4.000000,4.000000,4.000000,4.000000,4.000000,100.000000,7.000000,0.000000,0.711526,-0.023804,-0.695374,0.098083,1.008316,-0.174807,0.031250,-18.243687,-88.078125,15.701533,,,,,,,,,,,,,,,,,,,,,,,,,,,,,,,,,,,,,,,,,,,,,,,,,,,,,,,,,,,,,,,,,,,,,,,,,,,,,,,,,,,,,,,,,,,,,,,,,,,,,
1606509542.326443,29.000000,0.000000,4192.436035,4198.846191,4197.179688,4200.256348,4210.512695,4203.846191,4207.436035,4203.589844,4211.282227,4203.077148,4195.641113,4199.743652,4190.897461,4182.948730,0.000000,4.000000,,,,0.000000,4.000000,4.000000,4.000000,4.000000,4.000000,4.000000,4.000000,4.000000,4.000000,4.000000,4.000000,4.000000,4.000000,4.000000,100.000000,,,,,,,,,,,,,,,,,,,,,,,,,,,,,,,,,,,,,,,,,,,,,,,,,,,,,,,,,,,,,,,,,,,,,,,,,,,,,,,,,,,,,,,,,,,,,,,,,,,,,,,,,,,,,,,,,
1606509542.334243,30.000000,0.000000,4199.487305,4199.487305,4202.179688,4204.615234,4215.641113,4201.282227,4192.692383,4201.922852,4220.384766,4199.358887,4211.794922,4194.743652,4205.897461,4187.051270,0.000000,4.000000,,,,0.000000,4.000000,4.000000,4.000000,4.000000,4.000000,4.000000,4.000000,4.000000,4.000000,4.000000,4.000000,4.000000,4.000000,4.000000,100.000000,,,,,,,,,,,,,,,,,,,,,,,,,,,,,,,,,,,,,,,,,,,,,,,,,,,,,,,,,,,,,,,,,,,,,,,,,,,,,,,,,,,,,,,,,,,,,,,,,,,,,,,,,,,,,,,,,
1606509542.342043,31.000000,0.000000,4200.897461,4196.025879,4202.692383,4200.769043,4207.692383,4199.743652,4198.717773,4203.333496,4216.153809,4201.666504,4200.128418,4198.589844,4192.692383,4188.846191,0.000000,4.000000,,,,0.000000,4.000000,4.000000,4.000000,4.000000,4.000000,4.000000,4.000000,4.000000,4.000000,4.000000,4.000000,4.000000,4.000000,4.000000,100.000000,,,,,,,,,,,,,,,,,,,,,,,,,,,,,,,,,,,,,,,,,,,,,,,,,,,,,,,,,,,,,,,,,,,,,,,,,,,,,,,,,,,,,,,,,,,,,,,,,,,,,,,,,,,,,,,,,
1606509542.349844,32.000000,0.000000,4198.846191,4196.794922,4197.179688,4197.307617,4212.179688,4202.307617,4202.563965,4195.769043,4206.538574,4209.102539,4183.077148,4203.077148,4174.487305,4183.974121,0.000000,4.000000,,,,0.000000,4.000000,4.000000,4.000000,4.000000,4.000000,4.000000,4.000000,4.000000,4.000000,4.000000,4.000000,4.000000,4.000000,4.000000,100.000000,8.000000,0.000000,0.711641,-0.024170,-0.695251,0.098022,1.004898,-0.167971,0.049805,-17.196918,-86.732277,15.851072,,,,,,,,,,,,,,,,,,,,,,,,,,,,,,,,,,,,,,,,,,,,,,,,,,,,,,,,,,,,,,,,,,,,,,,,,,,,,,,,,,,,,,,,,,,,,,,,,,,,,
1606509542.357644,33.000000,0.000000,4205.128418,4203.461426,4205.641113,4206.666504,4215.769043,4201.410156,4198.461426,4196.025879,4203.333496,4216.794922,4209.871582,4203.461426,4189.743652,4183.974121,0.000000,4.000000,,,,0.000000,4.000000,4.000000,4.000000,4.000000,4.000000,4.000000,4.000000,4.000000,4.000000,4.000000,4.000000,4.000000,4.000000,4.000000,100.000000,,,,,,,,,,,,,,,,,,,,,,,,,,,,,,,,,,,,,,,,,,,,,,,,,,,,,,,,,,,,,,,,,,,,,,,,,,,,,,,,,,,,,,,,,,,,,,,,,,,,,,,,,,,,,,,,,
1606509542.365444,34.000000,0.000000,4201.666504,4196.666504,4209.615234,4207.692383,4205.256348,4199.487305,4201.282227,4200.769043,4200.128418,4205.256348,4223.205078,4195.512695,4202.563965,4188.205078,0.000000,4.000000,,,,0.000000,4.000000,4.000000,4.000000,4.000000,4.000000,4.000000,4.000000,4.000000,4.000000,4.000000,4.000000,4.000000,4.000000,4.000000,100.000000,,,,,,,,,,,,,,,,,,,,,,,,,,,,,,,,,,,,,,,,,,,,,,,,,,,,,,,,,,,,,,,,,,,,,,,,,,,,,,,,,,,,,,,,,,,,,,,,,,,,,,,,,,,,,,,,,
1606509542.373245,35.000000,0.000000,4201.282227,4193.205078,4209.102539,4200.512695,4202.563965,4200.897461,4202.179688,4203.461426,4201.666504,4191.025879,4198.589844,4203.717773,4194.230957,4198.205078,0.000000,4.000000,,,,0.000000,4.000000,4.000000,4.000000,4.000000,4.000000,4.000000,4.000000,4.000000,4.000000,4.000000,4.000000,4.000000,4.000000,4.000000,100.000000,,,,,,,,,,,,,,,,,,,,,,,,,,,,,,,,,,,,,,,,,,,,,,,,,,,,,,,,,,,,,,,,,,,,,,,,,,,,,,,,,,,,,,,,,,,,,,,,,,,,,,,,,,,,,,,,,
1606509542.381045,36.000000,0.000000,4220.128418,4208.589844,4218.461426,4209.487305,4211.666504,4205.128418,4202.563965,4207.820313,4215.641113,4206.282227,4205.897461,4220.128418,4198.333496,4211.794922,0.000000,4.000000,,,,0.000000,4.000000,4.000000,4.000000,4.000000,4.000000,4.000000,4.000000,4.000000,4.000000,4.000000,4.000000,4.000000,4.000000,4.000000,100.000000,9.000000,0.000000,0.711738,-0.024292,-0.695190,0.097717,1.015640,-0.171389,0.049805,-18.393225,-86.433205,16.150148,,,,,,,,,,,,,,,,,,,,,,,,,,,,,,,,,,,,,,,,,,,,,,,,,,,,,,,,,,,,,,,,,,,,,,,,,,,,,,,,,,,,,,,,,,,,,,,,,,,,,
1606509542.388845,37.000000,0.000000,4227.051270,4211.794922,4222.307617,4220.384766,4221.282227,4205.128418,4206.794922,4210.897461,4221.282227,4218.846191,4228.077148,4214.358887,4209.230957,4213.717773,0.000000,4.000000,,,,0.000000,4.000000,4.000000,4.000000,4.000000,4.000000,4.000000,4.000000,4.000000,4.000000,4.000000,4.000000,4.000000,4.000000,4.000000,100.000000,,,,,,,,,,,,,,,,,,,,,,,,,,,,,,,,,,,,,,,,,,,,,,,,,,,,,,,,,,,,,,,,,,,,,,,,,,,,,,,,,,,,,,,,,,,,,,,,,,,,,,,,,,,,,,,,,
1606509542.396646,38.000000,0.000000,4213.205078,4199.358887,4212.820313,4215.769043,4230.000000,4202.307617,4205.000000,4212.051270,4210.769043,4199.230957,4203.333496,4206.922852,4201.922852,4205.128418,0.000000,4.000000,,,,0.000000,4.000000,4.000000,4.000000,4.000000,4.000000,4.000000,4.000000,4.000000,4.000000,4.000000,4.000000,4.000000,4.000000,4.000000,100.000000,,,,,,,,,,,,,,,,,,,,,,,,,,,,,,,,,,,,,,,,,,,,3.062208,3.988098,2.321473,0.870046,0.601880,1.784644,1.350078,0.803184,0.430931,0.343945,1.757071,2.331267,1.747623,0.571776,0.465689,1.178624,1.203128,0.981137,0.646313,0.406731,0.240078,0.712772,0.996518,0.190113,0.548990,0.541100,0.311417,0.187234,0.329023,0.218906,0.340165,0.511831,0.441336,0.406975,0.565276,0.316888,1.222789,0.633240,0.196613,0.627595,0.921349,2.861902,1.413596,0.652619,1.146688,2.102028,3.908906,2.329938,0.911677,1.557332,1.947820,3.184416,2.128650,1.045726,1.201433,2.054440,4.130290,2.129545,1.108136,1.103708,3.247347,3.255750,1.863117,1.162423,1.102311,3.887428,3.587293,2.227846,0.969583,0.770228
1606509542.404346,39.000000,0.000000,4213.077148,4199.487305,4211.410156,4212.436035,4219.358887,4200.128418,4201.538574,4210.000000,4212.820313,4199.102539,4199.743652,4213.717773,4196.666504,4210.128418,0.000000,4.000000,,,,0.000000,4.000000,4.000000,4.000000,4.000000,4.000000,4.000000,4.000000,4.000000,4.000000,4.000000,4.000000,4.000000,4.000000,4.000000,100.000000,,,,,,,,,,,,,,,,,,,,,,,,,,,,,,,,,,,,,,,,,,,,,,,,,,,,,,,,,,,,,,,,,,,,,,,,,,,,,,,,,,,,,,,,,,,,,,,,,,,,,,,,,,,,,,,,,
1606509542.412146,40.000000,0.000000,4224.230957,4203.846191,4221.666504,4214.871582,4192.820313,4201.538574,4204.102539,4205.641113,4216.410156,4219.871582,4236.025879,4213.205078,4212.436035,4222.563965,0.000000,4.000000,,,,0.000000,4.000000,4.000000,4.000000,4.000000,4.000000,4.000000,4.000000,4.000000,4.000000,4.000000,4.000000,4.000000,4.000000,4.000000,100.000000,10.000000,0.000000,0.711627,-0.024536,-0.695313,0.097595,1.021988,-0.175296,0.043458,-17.645533,-87.928589,15.103380,,,,,,,,,,,,,,,,,,,,,,,,,,,,,,,,,,,,,,,,,,,,,,,,,,,,,,,,,,,,,,,,,,,,,,,,,,,,,,,,,,,,,,,,,,,,,,,,,,,,,
1606509542.419946,41.000000,0.000000,4216.794922,4200.256348,4217.179688,4207.436035,4187.051270,4201.666504,4207.436035,4205.128418,4205.769043,4209.358887,4226.794922,4208.846191,4212.051270,4215.128418,0.000000,4.000000,,,,0.000000,4.000000,4.000000,4.000000,4.000000,4.000000,4.000000,4.000000,4.000000,4.000000,4.000000,4.000000,4.000000,4.000000,4.000000,100.000000,,,,,,,,,,,,,,,,,,,,,,,,,,,,,,,,,,,,,,,,,,,,,,,,,,,,,,,,,,,,,,,,,,,,,,,,,,,,,,,,,,,,,,,,,,,,,,,,,,,,,,,,,,,,,,,,,
1606509542.427746,42.000000,0.000000,4204.102539,4199.871582,4205.641113,4202.948730,4200.384766,4198.205078,4201.538574,4200.641113,4196.538574,4202.948730,4195.897461,4213.717773,4191.538574,4203.077148,0.000000,4.000000,,,,0.000000,4.000000,4.000000,4.000000,4.000000,4.000000,4.000000,4.000000,4.000000,4.000000,4.000000,4.000000,4.000000,4.000000,4.000000,100.000000,,,,,,,,,,,,,,,,,,,,,,,,,,,,,,,,,,,,,,,,,,,,,,,,,,,,,,,,,,,,,,,,,,,,,,,,,,,,,,,,,,,,,,,,,,,,,,,,,,,,,,,,,,,,,,,,,
1606509542.435546,43.000000,0.000000,4201.282227,4194.102539,4201.538574,4205.000000,4201.922852,4198.205078,4200.000000,4193.589844,4189.615234,4207.948730,4199.358887,4211.410156,4186.025879,4199.487305,0.000000,4.000000,,,,0.000000,4.000000,4.000000,4.000000,4.000000,4.000000,4.000000,4.000000,4.000000,4.000000,4.000000,4.000000,4.000000,4.000000,4.000000,100.000000,,,,,,,,,,,,,,,,,,,,,,,,,,,,,,,,,,,,,,,,,,,,,,,,,,,,,,,,,,,,,,,,,,,,,,,,,,,,,,,,,,,,,,,,,,,,,,,,,,,,,,,,,,,,,,,,,
1606509542.443346,44.000000,0.000000,4199.487305,4183.589844,4198.974121,4196.025879,4195.512695,4201.666504,4208.974121,4200.512695,4187.051270,4190.256348,4206.282227,4197.436035,4188.205078,4193.461426,0.000000,4.000000,,,,0.000000,4.000000,4.000000,4.000000,4.000000,4.000000,4.000000,4.000000,4.000000,4.000000,4.000000,4.000000,4.000000,4.000000,4.000000,100.000000,11.000000,0.000000,0.711391,-0.024719,-0.695557,0.097534,1.015152,-0.179690,0.030274,-17.196918,-87.180893,14.654764,,,,,,,,,,,,,,,,,,,,,,,,,,,,,,,,,,,,,,,,,,,,,,,,,,,,,,,,,,,,,,,,,,,,,,,,,,,,,,,,,,,,,,,,,,,,,,,,,,,,,
1606509542.451146,45.000000,0.000000,4198.717773,4190.769043,4197.436035,4190.128418,4200.769043,4202.820313,4207.436035,4200.128418,4194.102539,4185.384766,4195.256348,4186.666504,4180.256348,4184.615234,0.000000,4.000000,,,,0.000000,4.000000,4.000000,4.000000,4.000000,4.000000,4.000000,4.000000,4.000000,4.000000,4.000000,4.000000,4.000000,4.000000,4.000000,100.000000,,,,,,,,,,,,,,,,,,,,,,,,,,,,,,,,,,,,,,,,,,,,,,,,,,,,,,,,,,,,,,,,,,,,,,,,,,,,,,,,,,,,,,,,,,,,,,,,,,,,,,,,,,,,,,,,,
1606509542.458947,46.000000,0.000000,4200.384766,4203.461426,4200.256348,4200.769043,4213.589844,4202.436035,4194.102539,4186.538574,4201.153809,4204.487305,4195.256348,4188.461426,4177.563965,4183.077148,0.000000,4.000000,,,,0.000000,4.000000,4.000000,4.000000,4.000000,4.000000,4.000000,4.000000,4.000000,4.000000,4.000000,4.000000,4.000000,4.000000,4.000000,100.000000,,,,,,,,,,,,,,,,,,,,,,,,,,,,,,,,,,,,,,,,,,,,,,,,,,,,,,,,,,,,,,,,,,,,,,,,,,,,,,,,,,,,,,,,,,,,,,,,,,,,,,,,,,,,,,,,,
1606509542.466747,47.000000,0.000000,4197.307617,4196.410156,4200.897461,4205.769043,4212.692383,4203.205078,4196.410156,4197.051270,4201.538574,4205.000000,4206.794922,4200.256348,4189.743652,4190.128418,0.000000,4.000000,,,,0.000000,4.000000,4.000000,4.000000,4.000000,4.000000,4.000000,4.000000,4.000000,4.000000,4.000000,4.000000,4.000000,4.000000,4.000000,100.000000,,,,,,,,,,,,,,,,,,,,,,,,,,,,,,,,,,,,,,,,,,,,,,,,,,,,,,,,,,,,,,,,,,,,,,,,,,,,,,,,,,,,,,,,,,,,,,,,,,,,,,,,,,,,,,,,,
1606509542.474447,48.000000,0.000000,4186.153809,4180.128418,4190.897461,4190.128418,4207.436035,4205.128418,4208.589844,4204.102539,4192.948730,4185.384766,4191.666504,4188.589844,4185.512695,4184.615234,0.000000,4.000000,,,,0.000000,4.000000,4.000000,4.000000,4.000000,4.000000,4.000000,4.000000,4.000000,4.000000,4.000000,4.000000,4.000000,4.000000,4.000000,100.000000,12.000000,0.000000,0.711169,-0.024719,-0.695801,0.097412,1.019547,-0.196780,0.028809,-17.047379,-87.330437,15.701533,,,,,,,,,,,,,,,,,,,,,,,,,,,,,,,,,,,,,,,,,,,,,,,,,,,,,,,,,,,,,,,,,,,,,,,,,,,,,,,,,,,,,,,,,,,,,,,,,,,,,
1606509542.482246,49.000000,0.000000,4176.282227,4181.794922,4181.666504,4181.025879,4210.000000,4205.128418,4196.538574,4184.230957,4182.436035,4183.717773,4164.487305,4165.897461,4167.692383,4170.000000,0.000000,4.000000,,,,0.000000,4.000000,4.000000,4.000000,4.000000,4.000000,4.000000,4.000000,4.000000,4.000000,4.000000,4.000000,4.000000,4.000000,4.000000,100.000000,,,,,,,,,,,,,,,,,,,,,,,,,,,,,,,,,,,,,,,,,,,,,,,,,,,,,,,,,,,,,,,,,,,,,,,,,,,,,,,,,,,,,,,,,,,,,,,,,,,,,,,,,,,,,,,,,
1606509542.490046,50.000000,0.000000,4176.666504,4189.871582,4184.358887,4190.000000,4207.436035,4205.256348,4184.102539,4179.102539,4186.794922,4194.230957,4175.384766,4170.897461,4168.717773,4167.563965,0.000000,4.000000,,,,0.000000,4.000000,4.000000,4.000000,4.000000,4.000000,4.000000,4.000000,4.000000,4.000000,4.000000,4.000000,4.000000,4.000000,4.000000,100.000000,,,,,,,,,,,,,,,,,,,,,,,,,,,,,,,,,,,,,,,,,,,,,,,,,,,,,,,,,,,,,,,,,,,,,,,,,,,,,,,,,,,,,,,,,,,,,,,,,,,,,,,,,,,,,,,,,
1606509542.497846,51.000000,0.000000,4184.230957,4186.666504,4194.615234,4200.256348,4202.179688,4203.461426,4197.563965,4196.410156,4200.128418,4201.025879,4201.282227,4185.512695,4185.128418,4179.230957,0.000000,4.000000,,,,0.000000,4.000000,4.000000,4.000000,4.000000,4.000000,4.000000,4.000000,4.000000,4.000000,4.000000,4.000000,4.000000,4.000000,4.000000,100.000000,,,,,,,,,,,,,,,,,,,,,,,,,,,,,,,,,,,,,,,,,,,,,,,,,,,,,,,,,,,,,,,,,,,,,,,,,,,,,,,,,,,,,,,,,,,,,,,,,,,,,,,,,,,,,,,,,
1606509542.505646,52.000000,0.000000,4189.358887,4189.230957,4201.025879,4202.179688,4202.307617,4201.025879,4204.615234,4203.717773,4203.589844,4205.512695,4193.589844,4185.512695,4191.538574,4188.077148,0.000000,4.000000,,,,0.000000,4.000000,4.000000,4.000000,4.000000,4.000000,4.000000,4.000000,4.000000,4.000000,4.000000,4.000000,4.000000,4.000000,4.000000,100.000000,13.000000,0.000000,0.710959,-0.024841,-0.696045,0.097168,1.007340,-0.174807,0.029786,-17.645533,-86.732277,15.851072,,,,,,,,,,,,,,,,,,,,,,,,,,,,,,,,,,,,,,,,,,,,,,,,,,,,,,,,,,,,,,,,,,,,,,,,,,,,,,,,,,,,,,,,,,,,,,,,,,,,,
1606509542.513446,53.000000,0.000000,4180.897461,4192.820313,4196.410156,4192.436035,4198.974121,4200.641113,4192.051270,4197.051270,4199.230957,4200.641113,4178.333496,4181.666504,4178.974121,4178.461426,0.000000,4.000000,,,,0.000000,4.000000,4.000000,4.000000,4.000000,4.000000,4.000000,4.000000,4.000000,4.000000,4.000000,4.000000,4.000000,4.000000,4.000000,100.000000,,,,,,,,,,,,,,,,,,,,,,,,,,,,,,,,,,,,,,,,,,,,,,,,,,,,,,,,,,,,,,,,,,,,,,,,,,,,,,,,,,,,,,,,,,,,,,,,,,,,,,,,,,,,,,,,,
1606509542.521246,54.000000,0.000000,4174.102539,4190.512695,4193.589844,4187.692383,4194.102539,4200.128418,4188.846191,4193.974121,4192.820313,4189.230957,4188.333496,4186.538574,4174.743652,4173.589844,0.000000,4.000000,,,,0.000000,4.000000,4.000000,4.000000,4.000000,4.000000,4.000000,4.000000,4.000000,4.000000,4.000000,4.000000,4.000000,4.000000,4.000000,100.000000,,,,,,,,,,,,,,,,,,,,,,,,,,,,,,,,,,,,,,,,,,,,2.705037,3.408733,2.474702,0.904076,0.640669,1.657042,1.225159,0.925125,0.460582,0.369869,1.508131,2.003621,1.795526,0.609955,0.484823,1.055557,1.061825,1.021329,0.687548,0.377949,0.279843,0.828425,0.992130,0.195719,0.543512,0.566694,0.283597,0.228050,0.318520,0.223096,0.316453,0.511705,0.505450,0.376488,0.625311,0.296869,1.198498,0.678618,0.209819,0.610013,0.861417,2.670915,1.570156,0.666531,1.058906,2.286911,3.685830,2.654470,1.102091,1.477939,2.110011,3.164034,2.567115,0.983300,1.127976,2.107854,3.901034,2.266426,1.124746,1.098468,3.790577,2.987070,2.024598,1.053389,1.159048,4.106100,3.279808,2.260508,1.009612,0.783377
1606509542.529046,55.000000,0.000000,4181.153809,4192.692383,4198.846191,4195.512695,4199.102539,4200.384766,4200.384766,4201.025879,4195.641113,4189.743652,4200.512695,4195.641113,4193.205078,4190.256348,0.000000,4.000000,,,,0.000000,4.000000,4.000000,4.000000,4.000000,4.000000,4.000000,4.000000,4.000000,4.000000,4.000000,4.000000,4.000000,4.000000,4.000000,100.000000,,,,,,,,,,,,,,,,,,,,,,,,,,,,,,,,,,,,,,,,,,,,,,,,,,,,,,,,,,,,,,,,,,,,,,,,,,,,,,,,,,,,,,,,,,,,,,,,,,,,,,,,,,,,,,,,,
1606509542.536743,56.000000,0.000000,4189.743652,4193.974121,4203.205078,4199.743652,4199.615234,4203.589844,4206.153809,4204.358887,4204.230957,4203.717773,4204.487305,4201.410156,4211.794922,4204.102539,0.000000,4.000000,,,,0.000000,4.000000,4.000000,4.000000,4.000000,4.000000,4.000000,4.000000,4.000000,4.000000,4.000000,4.000000,4.000000,4.000000,4.000000,100.000000,14.000000,0.000000,0.710712,-0.025024,-0.696350,0.096741,1.003922,-0.172854,0.022950,-18.243687,-87.779053,15.701533,,,,,,,,,,,,,,,,,,,,,,,,,,,,,,,,,,,,,,,,,,,,,,,,,,,,,,,,,,,,,,,,,,,,,,,,,,,,,,,,,,,,,,,,,,,,,,,,,,,,,
1606509542.544541,57.000000,0.000000,4196.153809,4191.922852,4205.000000,4197.051270,4201.794922,4202.948730,4199.102539,4196.666504,4199.358887,4211.410156,4213.589844,4208.589844,4223.205078,4208.461426,0.000000,4.000000,,,,0.000000,4.000000,4.000000,4.000000,4.000000,4.000000,4.000000,4.000000,4.000000,4.000000,4.000000,4.000000,4.000000,4.000000,4.000000,100.000000,,,,,,,,,,,,,,,,,,,,,,,,,,,,,,,,,,,,,,,,,,,,,,,,,,,,,,,,,,,,,,,,,,,,,,,,,,,,,,,,,,,,,,,,,,,,,,,,,,,,,,,,,,,,,,,,,
1606509542.552339,58.000000,0.000000,4203.461426,4198.846191,4206.922852,4199.230957,4215.256348,4197.820313,4190.769043,4195.512695,4199.743652,4221.410156,4225.256348,4215.512695,4232.563965,4216.922852,0.000000,4.000000,,,,0.000000,4.000000,4.000000,4.000000,4.000000,4.000000,4.000000,4.000000,4.000000,4.000000,4.000000,4.000000,4.000000,4.000000,4.000000,100.000000,,,,,,,,,,,,,,,,,,,,,,,,,,,,,,,,,,,,,,,,,,,,,,,,,,,,,,,,,,,,,,,,,,,,,,,,,,,,,,,,,,,,,,,,,,,,,,,,,,,,,,,,,,,,,,,,,
1606509542.560137,59.000000,0.000000,4203.846191,4202.948730,4206.794922,4202.820313,4217.179688,4198.974121,4195.000000,4203.205078,4216.794922,4233.077148,4229.102539,4218.205078,4234.615234,4221.922852,0.000000,4.000000,,,,0.000000,4.000000,4.000000,4.000000,4.000000,4.000000,4.000000,4.000000,4.000000,4.000000,4.000000,4.000000,4.000000,4.000000,4.000000,100.000000,,,,,,,,,,,,,,,,,,,,,,,,,,,,,,,,,,,,,,,,,,,,,,,,,,,,,,,,,,,,,,,,,,,,,,,,,,,,,,,,,,,,,,,,,,,,,,,,,,,,,,,,,,,,,,,,,
1606509542.567836,60.000000,0.000000,4197.948730,4191.538574,4205.769043,4198.333496,4208.333496,4200.769043,4200.000000,4202.692383,4216.666504,4224.615234,4223.589844,4220.128418,4232.051270,4218.974121,0.000000,4.000000,,,,0.000000,4.000000,4.000000,4.000000,4.000000,4.000000,4.000000,4.000000,4.000000,4.000000,4.000000,4.000000,4.000000,4.000000,4.000000,100.000000,15.000000,0.000000,0.710632,-0.025085,-0.696472,0.096436,1.007828,-0.163577,0.015137,-18.692303,-87.779053,16.449226,,,,,,,,,,,,,,,,,,,,,,,,,,,,,,,,,,,,,,,,,,,,,,,,,,,,,,,,,,,,,,,,,,,,,,,,,,,,,,,,,,,,,,,,,,,,,,,,,,,,,
1606509542.575635,61.000000,0.000000,4196.538574,4183.846191,4203.717773,4193.846191,4201.025879,4200.512695,4200.384766,4197.179688,4197.948730,4213.205078,4216.666504,4217.692383,4231.922852,4214.102539,0.000000,4.000000,,,,0.000000,4.000000,4.000000,4.000000,4.000000,4.000000,4.000000,4.000000,4.000000,4.000000,4.000000,4.000000,4.000000,4.000000,4.000000,100.000000,,,,,,,,,,,,,,,,,,,,,,,,,,,,,,,,,,,,,,,,,,,,,,,,,,,,,,,,,,,,,,,,,,,,,,,,,,,,,,,,,,,,,,,,,,,,,,,,,,,,,,,,,,,,,,,,,
1606509542.583435,62.000000,0.000000,4194.230957,4184.743652,4199.102539,4189.615234,4200.512695,4203.205078,4207.563965,4195.641113,4194.102539,4217.436035,4212.436035,4211.538574,4224.487305,4207.051270,0.000000,4.000000,,,,0.000000,4.000000,4.000000,4.000000,4.000000,4.000000,4.000000,4.000000,4.000000,4.000000,4.000000,4.000000,4.000000,4.000000,4.000000,100.000000,,,,,,,,,,,,,,,,,,,,,,,,,,,,,,,,,,,,,,,,,,,,,,,,,,,,,,,,,,,,,,,,,,,,,,,,,,,,,,,,,,,,,,,,,,,,,,,,,,,,,,,,,,,,,,,,,
1606509542.591234,63.000000,0.000000,4190.256348,4188.333496,4198.461426,4190.897461,4211.538574,4203.717773,4205.128418,4200.641113,4203.077148,4225.128418,4218.461426,4213.717773,4219.102539,4207.820313,0.000000,4.000000,,,,0.000000,4.000000,4.000000,4.000000,4.000000,4.000000,4.000000,4.000000,4.000000,4.000000,4.000000,4.000000,4.000000,4.000000,4.000000,100.000000,,,,,,,,,,,,,,,,,,,,,,,,,,,,,,,,,,,,,,,,,,,,,,,,,,,,,,,,,,,,,,,,,,,,,,,,,,,,,,,,,,,,,,,,,,,,,,,,,,,,,,,,,,,,,,,,,
1606509542.599034,64.000000,0.000000,4197.820313,4196.025879,4205.000000,4202.692383,4218.461426,4199.487305,4195.128418,4212.563965,4217.948730,4236.153809,4233.846191,4229.743652,4236.153809,4221.410156,3384.000000,4.000000,,,,0.000000,4.000000,4.000000,4.000000,4.000000,4.000000,4.000000,4.000000,4.000000,4.000000,4.000000,4.000000,4.000000,4.000000,4.000000,100.000000,16.000000,0.000000,0.710324,-0.025269,-0.696838,0.096008,1.022477,-0.168460,0.026856,-18.393225,-87.928589,15.851072,,,,,,,,,,,,,,,,,,,,,,,,,,,,,,,,,,,,,,,,,,,,,,,,,,,,,,,,,,,,,,,,,,,,,,,,,,,,,,,,,,,,,,,,,,,,,,,,,,,,,
1606509542.606833,65.000000,0.000000,4203.205078,4195.256348,4207.563965,4205.128418,4204.615234,4204.230957,4206.922852,4221.538574,4231.538574,4242.563965,4235.897461,4241.282227,4244.358887,4226.922852,3510.000000,4.000000,,,,0.000000,4.000000,4.000000,4.000000,4.000000,4.000000,4.000000,4.000000,4.000000,4.000000,4.000000,4.000000,4.000000,4.000000,4.000000,100.000000,,,,,,,,,,,,,,,,,,,,,,,,,,,,,,,,,,,,,,,,,,,,,,,,,,,,,,,,,,,,,,,,,,,,,,,,,,,,,,,,,,,,,,,,,,,,,,,,,,,,,,,,,,,,,,,,,
1606509542.614632,66.000000,0.000000,4193.077148,4180.769043,4200.641113,4188.333496,4188.333496,4212.948730,4219.871582,4215.256348,4217.692383,4229.102539,4224.358887,4223.974121,4221.538574,4212.563965,3548.000000,4.000000,,,,0.000000,4.000000,4.000000,4.000000,4.000000,4.000000,4.000000,4.000000,4.000000,4.000000,4.000000,4.000000,4.000000,4.000000,4.000000,100.000000,,,,,,,,,,,,,,,,,,,,,,,,,,,,,,,,,,,,,,,,,,,,,,,,,,,,,,,,,,,,,,,,,,,,,,,,,,,,,,,,,,,,,,,,,,,,,,,,,,,,,,,,,,,,,,,,,
1606509542.622432,67.000000,0.000000,4182.436035,4173.589844,4194.230957,4182.307617,4191.794922,4208.589844,4206.922852,4203.077148,4202.563965,4225.000000,4222.436035,4197.307617,4206.922852,4198.589844,3443.000000,4.000000,,,,0.000000,4.000000,4.000000,4.000000,4.000000,4.000000,4.000000,4.000000,4.000000,4.000000,4.000000,4.000000,4.000000,4.000000,4.000000,100.000000,,,,,,,,,,,,,,,,,,,,,,,,,,,,,,,,,,,,,,,,,,,,,,,,,,,,,,,,,,,,,,,,,,,,,,,,,,,,,,,,,,,,,,,,,,,,,,,,,,,,,,,,,,,,,,,,,
1606509542.630132,68.000000,0.000000,4185.769043,4184.743652,4198.589844,4195.512695,4200.000000,4201.153809,4198.077148,4202.436035,4215.256348,4241.025879,4234.487305,4199.230957,4224.358887,4207.820313,3400.000000,4.000000,,,,0.000000,4.000000,4.000000,4.000000,4.000000,4.000000,4.000000,4.000000,4.000000,4.000000,4.000000,4.000000,4.000000,4.000000,4.000000,100.000000,17.000000,0.000000,0.710082,-0.025574,-0.697083,0.095947,0.995132,-0.177249,0.018067,-19.439995,-87.779053,15.252918,,,,,,,,,,,,,,,,,,,,,,,,,,,,,,,,,,,,,,,,,,,,,,,,,,,,,,,,,,,,,,,,,,,,,,,,,,,,,,,,,,,,,,,,,,,,,,,,,,,,,
1606509542.637932,69.000000,0.000000,4189.230957,4190.769043,4198.205078,4195.384766,4199.871582,4200.897461,4205.000000,4206.666504,4217.692383,4234.615234,4228.205078,4218.333496,4234.358887,4218.974121,3265.000000,4.000000,,,,0.000000,4.000000,4.000000,4.000000,4.000000,4.000000,4.000000,4.000000,4.000000,4.000000,4.000000,4.000000,4.000000,4.000000,4.000000,100.000000,,,,,,,,,,,,,,,,,,,,,,,,,,,,,,,,,,,,,,,,,,,,,,,,,,,,,,,,,,,,,,,,,,,,,,,,,,,,,,,,,,,,,,,,,,,,,,,,,,,,,,,,,,,,,,,,,
1606509542.645731,70.000000,0.000000,4179.743652,4175.897461,4186.282227,4181.922852,4197.051270,4202.051270,4204.358887,4201.282227,4192.051270,4207.307617,4191.410156,4216.794922,4200.897461,4201.794922,2913.000000,4.000000,,,,0.000000,4.000000,4.000000,4.000000,4.000000,4.000000,4.000000,4.000000,4.000000,4.000000,4.000000,4.000000,4.000000,4.000000,4.000000,100.000000,,,,,,,,,,,,,,,,,,,,,,,,,,,,,,,,,,,,,,,,,,,,2.299641,2.700820,2.599351,0.919407,0.675760,1.433891,1.119560,1.063454,0.484253,0.406716,1.236401,1.611115,1.821031,0.627313,0.497726,0.905415,0.920886,1.080765,0.725050,0.359072,0.335270,0.966753,0.936581,0.225188,0.551155,0.536244,0.265162,0.270097,0.292616,0.232832,0.326702,0.552181,0.562848,0.356796,0.677035,0.334547,1.104544,0.771922,0.244254,0.583464,0.904052,2.375123,1.832924,0.710899,0.959110,2.581855,3.217112,2.994202,1.312037,1.434565,2.350325,2.922876,2.908855,0.919360,1.073535,2.133121,3.348934,2.323154,1.104705,1.087541,4.352573,2.507789,2.105276,0.946883,1.221380,4.270070,2.936290,2.248745,1.004865,0.782357
1606509542.653531,71.000000,0.000000,4170.512695,4166.922852,4181.410156,4181.794922,4199.230957,4200.128418,4203.717773,4203.333496,4189.743652,4208.589844,4190.512695,4196.282227,4179.102539,4184.230957,2591.000000,4.000000,,,,0.000000,4.000000,4.000000,4.000000,4.000000,4.000000,4.000000,4.000000,4.000000,4.000000,4.000000,4.000000,4.000000,4.000000,4.000000,100.000000,,,,,,,,,,,,,,,,,,,,,,,,,,,,,,,,,,,,,,,,,,,,,,,,,,,,,,,,,,,,,,,,,,,,,,,,,,,,,,,,,,,,,,,,,,,,,,,,,,,,,,,,,,,,,,,,,
1606509542.661331,72.000000,0.000000,4171.666504,4175.000000,4186.410156,4188.589844,4203.846191,4198.461426,4205.384766,4213.974121,4213.205078,4228.589844,4229.615234,4184.102539,4202.307617,4195.000000,3276.000000,4.000000,,,,0.000000,4.000000,4.000000,4.000000,4.000000,4.000000,4.000000,4.000000,4.000000,4.000000,4.000000,4.000000,4.000000,4.000000,4.000000,100.000000,18.000000,0.000000,0.709713,-0.025757,-0.697510,0.095520,1.010758,-0.181643,0.019532,-16.598764,-85.835052,16.000610,,,,,,,,,,,,,,,,,,,,,,,,,,,,,,,,,,,,,,,,,,,,,,,,,,,,,,,,,,,,,,,,,,,,,,,,,,,,,,,,,,,,,,,,,,,,,,,,,,,,,
1606509542.669131,73.000000,0.000000,4176.410156,4176.025879,4187.051270,4185.000000,4197.692383,4200.897461,4202.563965,4208.205078,4212.820313,4222.307617,4228.589844,4190.256348,4216.025879,4201.666504,3554.000000,4.000000,,,,0.000000,4.000000,4.000000,4.000000,4.000000,4.000000,4.000000,4.000000,4.000000,4.000000,4.000000,4.000000,4.000000,4.000000,4.000000,100.000000,,,,,,,,,,,,,,,,,,,,,,,,,,,,,,,,,,,,,,,,,,,,,,,,,,,,,,,,,,,,,,,,,,,,,,,,,,,,,,,,,,,,,,,,,,,,,,,,,,,,,,,,,,,,,,,,,
1606509542.676931,74.000000,0.000000,4187.179688,4175.384766,4191.282227,4187.820313,4194.230957,4195.512695,4204.102539,4201.153809,4203.333496,4207.563965,4208.589844,4208.205078,4209.102539,4200.256348,3288.000000,4.000000,,,,0.000000,4.000000,4.000000,4.000000,4.000000,4.000000,4.000000,4.000000,4.000000,4.000000,4.000000,4.000000,4.000000,4.000000,4.000000,100.000000,,,,,,,,,,,,,,,,,,,,,,,,,,,,,,,,,,,,,,,,,,,,,,,,,,,,,,,,,,,,,,,,,,,,,,,,,,,,,,,,,,,,,,,,,,,,,,,,,,,,,,,,,,,,,,,,,
1606509542.684731,75.000000,0.000000,4197.179688,4182.307617,4200.512695,4197.692383,4198.589844,4190.641113,4205.641113,4211.794922,4209.871582,4218.589844,4224.358887,4218.846191,4213.974121,4209.487305,3312.000000,4.000000,,,,0.000000,4.000000,4.000000,4.000000,4.000000,4.000000,4.000000,4.000000,4.000000,4.000000,4.000000,4.000000,4.000000,4.000000,4.000000,100.000000,,,,,,,,,,,,,,,,,,,,,,,,,,,,,,,,,,,,,,,,,,,,,,,,,,,,,,,,,,,,,,,,,,,,,,,,,,,,,,,,,,,,,,,,,,,,,,,,,,,,,,,,,,,,,,,,,
1606509542.692531,76.000000,0.000000,4192.563965,4184.743652,4199.487305,4190.897461,4199.871582,4196.410156,4192.051270,4208.461426,4206.922852,4227.436035,4233.589844,4214.743652,4222.051270,4217.692383,3299.000000,4.000000,,,,0.000000,4.000000,4.000000,4.000000,4.000000,4.000000,4.000000,4.000000,4.000000,4.000000,4.000000,4.000000,4.000000,4.000000,4.000000,100.000000,19.000000,0.000000,0.709455,-0.026184,-0.697815,0.095093,1.002457,-0.171389,0.024414,-17.795071,-87.031357,16.000610,,,,,,,,,,,,,,,,,,,,,,,,,,,,,,,,,,,,,,,,,,,,,,,,,,,,,,,,,,,,,,,,,,,,,,,,,,,,,,,,,,,,,,,,,,,,,,,,,,,,,
1606509542.700231,77.000000,0.000000,4186.794922,4181.794922,4199.615234,4183.589844,4201.025879,4196.153809,4179.487305,4192.051270,4193.589844,4207.436035,4206.410156,4215.641113,4211.922852,4214.358887,3318.000000,4.000000,,,,0.000000,4.000000,4.000000,4.000000,4.000000,4.000000,4.000000,4.000000,4.000000,4.000000,4.000000,4.000000,4.000000,4.000000,4.000000,100.000000,,,,,,,,,,,,,,,,,,,,,,,,,,,,,,,,,,,,,,,,,,,,,,,,,,,,,,,,,,,,,,,,,,,,,,,,,,,,,,,,,,,,,,,,,,,,,,,,,,,,,,,,,,,,,,,,,
1606509542.708031,78.000000,0.000000,4187.948730,4176.025879,4201.410156,4191.922852,4201.538574,4185.769043,4192.692383,4201.282227,4203.461426,4201.794922,4196.410156,4221.538574,4194.871582,4206.922852,3288.000000,4.000000,,,,0.000000,4.000000,4.000000,4.000000,4.000000,4.000000,4.000000,4.000000,4.000000,4.000000,4.000000,4.000000,4.000000,4.000000,4.000000,100.000000,,,,,,,,,,,,,,,,,,,,,,,,,,,,,,,,,,,,,,,,,,,,,,,,,,,,,,,,,,,,,,,,,,,,,,,,,,,,,,,,,,,,,,,,,,,,,,,,,,,,,,,,,,,,,,,,,
1606509542.715830,79.000000,0.000000,4180.256348,4168.846191,4190.256348,4195.384766,4196.025879,4188.077148,4205.256348,4210.641113,4212.692383,4220.000000,4211.666504,4209.615234,4192.051270,4199.871582,3312.000000,4.000000,,,,0.000000,4.000000,4.000000,4.000000,4.000000,4.000000,4.000000,4.000000,4.000000,4.000000,4.000000,4.000000,4.000000,4.000000,4.000000,100.000000,,,,,,,,,,,,,,,,,,,,,,,,,,,,,,,,,,,,,,,,,,,,,,,,,,,,,,,,,,,,,,,,,,,,,,,,,,,,,,,,,,,,,,,,,,,,,,,,,,,,,,,,,,,,,,,,,
1606509542.723630,80.000000,0.000000,4176.025879,4174.358887,4188.846191,4191.666504,4192.948730,4198.974121,4195.897461,4198.717773,4203.846191,4219.871582,4223.333496,4195.897461,4208.205078,4199.743652,3299.000000,4.000000,,,,0.000000,4.000000,4.000000,4.000000,4.000000,4.000000,4.000000,4.000000,4.000000,4.000000,4.000000,4.000000,4.000000,4.000000,4.000000,100.000000,20.000000,0.000000,0.709279,-0.026428,-0.698059,0.094543,1.003433,-0.167483,0.016602,-18.991379,-87.031357,15.701533,,,,,,,,,,,,,,,,,,,,,,,,,,,,,,,,,,,,,,,,,,,,,,,,,,,,,,,,,,,,,,,,,,,,,,,,,,,,,,,,,,,,,,,,,,,,,,,,,,,,,
1606509542.731430,81.000000,0.000000,4186.410156,4186.538574,4201.538574,4197.563965,4195.897461,4194.743652,4191.666504,4196.666504,4203.846191,4210.000000,4220.897461,4208.077148,4218.589844,4208.717773,3318.000000,4.000000,,,,0.000000,4.000000,4.000000,4.000000,4.000000,4.000000,4.000000,4.000000,4.000000,4.000000,4.000000,4.000000,4.000000,4.000000,4.000000,100.000000,,,,,,,,,,,,,,,,,,,,,,,,,,,,,,,,,,,,,,,,,,,,,,,,,,,,,,,,,,,,,,,,,,,,,,,,,,,,,,,,,,,,,,,,,,,,,,,,,,,,,,,,,,,,,,,,,
1606509542.739230,82.000000,0.000000,4199.615234,4187.948730,4204.102539,4203.461426,4198.589844,4192.948730,4200.897461,4207.563965,4210.128418,4220.769043,4215.897461,4220.769043,4214.358887,4218.077148,3288.000000,4.000000,,,,0.000000,4.000000,4.000000,4.000000,4.000000,4.000000,4.000000,4.000000,4.000000,4.000000,4.000000,4.000000,4.000000,4.000000,4.000000,100.000000,,,,,,,,,,,,,,,,,,,,,,,,,,,,,,,,,,,,,,,,,,,,,,,,,,,,,,,,,,,,,,,,,,,,,,,,,,,,,,,,,,,,,,,,,,,,,,,,,,,,,,,,,,,,,,,,,
1606509542.747030,83.000000,0.000000,4200.897461,4182.179688,4201.794922,4195.769043,4199.871582,4199.230957,4200.256348,4202.563965,4203.717773,4229.615234,4218.846191,4211.025879,4217.563965,4218.589844,3312.000000,4.000000,,,,0.000000,4.000000,4.000000,4.000000,4.000000,4.000000,4.000000,4.000000,4.000000,4.000000,4.000000,4.000000,4.000000,4.000000,4.000000,100.000000,,,,,,,,,,,,,,,,,,,,,,,,,,,,,,,,,,,,,,,,,,,,,,,,,,,,,,,,,,,,,,,,,,,,,,,,,,,,,,,,,,,,,,,,,,,,,,,,,,,,,,,,,,,,,,,,,
1606509542.754830,84.000000,0.000000,4187.820313,4174.743652,4199.102539,4191.282227,4202.307617,4194.230957,4188.461426,4187.948730,4187.051270,4203.077148,4208.974121,4210.384766,4210.256348,4205.769043,3299.000000,4.000000,,,,0.000000,4.000000,4.000000,4.000000,4.000000,4.000000,4.000000,4.000000,4.000000,4.000000,4.000000,4.000000,4.000000,4.000000,4.000000,100.000000,21.000000,0.000000,0.709202,-0.026794,-0.698181,0.094116,1.009293,-0.154299,0.021973,-16.748302,-87.928589,14.654764,,,,,,,,,,,,,,,,,,,,,,,,,,,,,,,,,,,,,,,,,,,,,,,,,,,,,,,,,,,,,,,,,,,,,,,,,,,,,,,,,,,,,,,,,,,,,,,,,,,,,
1606509542.762630,85.000000,0.000000,4180.384766,4181.794922,4190.128418,4199.230957,4201.922852,4185.384766,4189.487305,4193.974121,4185.897461,4186.282227,4201.666504,4215.769043,4187.436035,4194.102539,3318.000000,4.000000,,,,0.000000,4.000000,4.000000,4.000000,4.000000,4.000000,4.000000,4.000000,4.000000,4.000000,4.000000,4.000000,4.000000,4.000000,4.000000,100.000000,,,,,,,,,,,,,,,,,,,,,,,,,,,,,,,,,,,,,,,,,,,,,,,,,,,,,,,,,,,,,,,,,,,,,,,,,,,,,,,,,,,,,,,,,,,,,,,,,,,,,,,,,,,,,,,,,
1606509542.770330,86.000000,0.000000,4182.948730,4189.615234,4187.179688,4202.179688,4198.717773,4187.051270,4197.692383,4198.974121,4190.897461,4201.538574,4214.871582,4197.563965,4183.205078,4197.051270,3288.000000,4.000000,,,,0.000000,4.000000,4.000000,4.000000,4.000000,4.000000,4.000000,4.000000,4.000000,4.000000,4.000000,4.000000,4.000000,4.000000,4.000000,100.000000,,,,,,,,,,,,,,,,,,,,,,,,,,,,,,,,,,,,,,,,,,,,1.936227,2.061934,2.671579,0.929211,0.706139,1.207473,1.081921,1.195768,0.506094,0.449801,1.038395,1.264501,1.816142,0.630742,0.502697,0.782004,0.824409,1.143350,0.767750,0.357076,0.375439,1.118620,0.853014,0.285943,0.573973,0.463055,0.254654,0.302496,0.257744,0.244027,0.372999,0.608135,0.601122,0.342253,0.707767,0.451793,0.984972,0.868720,0.295775,0.555773,1.077989,2.046080,2.094565,0.777779,0.868668,2.950251,2.604685,3.253701,1.475075,1.426399,2.641023,2.534981,3.077553,0.860199,1.059273,2.213452,2.632128,2.301975,1.060313,1.081820,4.824795,1.965818,2.103970,0.880689,1.269726,4.373647,2.646056,2.194335,0.972102,0.766195
1606509542.778130,87.000000,0.000000,4177.051270,4176.025879,4190.384766,4195.256348,4205.897461,4187.179688,4199.871582,4186.922852,4181.025879,4201.922852,4211.666504,4180.641113,4190.256348,4195.128418,3312.000000,4.000000,,,,0.000000,4.000000,4.000000,4.000000,4.000000,4.000000,4.000000,4.000000,4.000000,4.000000,4.000000,4.000000,4.000000,4.000000,4.000000,100.000000,,,,,,,,,,,,,,,,,,,,,,,,,,,,,,,,,,,,,,,,,,,,,,,,,,,,,,,,,,,,,,,,,,,,,,,,,,,,,,,,,,,,,,,,,,,,,,,,,,,,,,,,,,,,,,,,,
1606509542.785930,88.000000,0.000000,4176.922852,4172.948730,4193.205078,4195.000000,4210.000000,4186.410156,4202.179688,4191.410156,4184.743652,4195.641113,4200.128418,4192.051270,4195.128418,4195.000000,3299.000000,4.000000,,,,0.000000,4.000000,4.000000,4.000000,4.000000,4.000000,4.000000,4.000000,4.000000,4.000000,4.000000,4.000000,4.000000,4.000000,4.000000,100.000000,22.000000,0.000000,0.709184,-0.027039,-0.698181,0.094177,1.011246,-0.163088,0.016602,-18.243687,-87.330437,16.449226,,,,,,,,,,,,,,,,,,,,,,,,,,,,,,,,,,,,,,,,,,,,,,,,,,,,,,,,,,,,,,,,,,,,,,,,,,,,,,,,,,,,,,,,,,,,,,,,,,,,,
1606509542.793730,89.000000,0.000000,4198.589844,4189.358887,4202.307617,4206.282227,4193.205078,4193.589844,4205.256348,4217.948730,4216.282227,4220.512695,4212.051270,4217.051270,4210.000000,4212.820313,3318.000000,4.000000,,,,0.000000,4.000000,4.000000,4.000000,4.000000,4.000000,4.000000,4.000000,4.000000,4.000000,4.000000,4.000000,4.000000,4.000000,4.000000,100.000000,,,,,,,,,,,,,,,,,,,,,,,,,,,,,,,,,,,,,,,,,,,,,,,,,,,,,,,,,,,,,,,,,,,,,,,,,,,,,,,,,,,,,,,,,,,,,,,,,,,,,,,,,,,,,,,,,
1606509542.801530,90.000000,0.000000,4205.256348,4190.512695,4206.410156,4200.000000,4179.230957,4192.692383,4203.333496,4219.615234,4224.102539,4235.512695,4215.897461,4221.794922,4212.692383,4217.179688,3288.000000,4.000000,,,,0.000000,4.000000,4.000000,4.000000,4.000000,4.000000,4.000000,4.000000,4.000000,4.000000,4.000000,4.000000,4.000000,4.000000,4.000000,100.000000,,,,,,,,,,,,,,,,,,,,,,,,,,,,,,,,,,,,,,,,,,,,,,,,,,,,,,,,,,,,,,,,,,,,,,,,,,,,,,,,,,,,,,,,,,,,,,,,,,,,,,,,,,,,,,,,,
1606509542.809330,91.000000,0.000000,4190.256348,4181.922852,4199.102539,4187.820313,4191.025879,4190.512695,4201.538574,4200.641113,4200.256348,4207.563965,4203.589844,4201.666504,4190.128418,4197.051270,3312.000000,4.000000,,,,0.000000,4.000000,4.000000,4.000000,4.000000,4.000000,4.000000,4.000000,4.000000,4.000000,4.000000,4.000000,4.000000,4.000000,4.000000,100.000000,,,,,,,,,,,,,,,,,,,,,,,,,,,,,,,,,,,,,,,,,,,,,,,,,,,,,,,,,,,,,,,,,,,,,,,,,,,,,,,,,,,,,,,,,,,,,,,,,,,,,,,,,,,,,,,,,
1606509542.817130,92.000000,0.000000,4187.692383,4184.358887,4198.717773,4197.563965,4202.051270,4198.846191,4203.077148,4201.794922,4200.128418,4199.615234,4211.025879,4198.333496,4183.205078,4196.153809,3299.000000,4.000000,,,,0.000000,4.000000,4.000000,4.000000,4.000000,4.000000,4.000000,4.000000,4.000000,4.000000,4.000000,4.000000,4.000000,4.000000,4.000000,100.000000,23.000000,0.000000,0.709078,-0.026978,-0.698242,0.094543,1.021012,-0.164065,0.024903,-17.645533,-85.984589,15.851072,,,,,,,,,,,,,,,,,,,,,,,,,,,,,,,,,,,,,,,,,,,,,,,,,,,,,,,,,,,,,,,,,,,,,,,,,,,,,,,,,,,,,,,,,,,,,,,,,,,,,
1606509542.824930,93.000000,0.000000,4191.922852,4187.692383,4203.589844,4209.358887,4200.512695,4202.051270,4203.846191,4207.948730,4209.487305,4212.692383,4225.000000,4221.922852,4202.692383,4213.461426,3318.000000,4.000000,,,,0.000000,4.000000,4.000000,4.000000,4.000000,4.000000,4.000000,4.000000,4.000000,4.000000,4.000000,4.000000,4.000000,4.000000,4.000000,100.000000,,,,,,,,,,,,,,,,,,,,,,,,,,,,,,,,,,,,,,,,,,,,,,,,,,,,,,,,,,,,,,,,,,,,,,,,,,,,,,,,,,,,,,,,,,,,,,,,,,,,,,,,,,,,,,,,,
1606509542.832731,94.000000,0.000000,4186.282227,4185.384766,4200.769043,4201.153809,4202.820313,4198.974121,4201.025879,4200.512695,4198.461426,4203.205078,4212.948730,4217.436035,4203.333496,4207.436035,3288.000000,4.000000,,,,0.000000,4.000000,4.000000,4.000000,4.000000,4.000000,4.000000,4.000000,4.000000,4.000000,4.000000,4.000000,4.000000,4.000000,4.000000,100.000000,,,,,,,,,,,,,,,,,,,,,,,,,,,,,,,,,,,,,,,,,,,,,,,,,,,,,,,,,,,,,,,,,,,,,,,,,,,,,,,,,,,,,,,,,,,,,,,,,,,,,,,,,,,,,,,,,
1606509542.840531,95.000000,0.000000,4191.282227,4185.384766,4199.102539,4198.077148,4205.256348,4199.487305,4203.205078,4197.051270,4198.333496,4202.948730,4198.846191,4189.230957,4192.307617,4196.282227,3312.000000,4.000000,,,,0.000000,4.000000,4.000000,4.000000,4.000000,4.000000,4.000000,4.000000,4.000000,4.000000,4.000000,4.000000,4.000000,4.000000,4.000000,100.000000,,,,,,,,,,,,,,,,,,,,,,,,,,,,,,,,,,,,,,,,,,,,,,,,,,,,,,,,,,,,,,,,,,,,,,,,,,,,,,,,,,,,,,,,,,,,,,,,,,,,,,,,,,,,,,,,,
1606509542.848231,96.000000,0.000000,4205.769043,4186.410156,4203.077148,4207.436035,4201.922852,4196.153809,4207.307617,4211.025879,4219.230957,4225.000000,4205.000000,4202.179688,4200.384766,4205.769043,3299.000000,4.000000,,,,0.000000,4.000000,4.000000,4.000000,4.000000,4.000000,4.000000,4.000000,4.000000,4.000000,4.000000,4.000000,4.000000,4.000000,4.000000,100.000000,24.000000,0.000000,0.709029,-0.026978,-0.698242,0.094910,1.005386,-0.189944,0.033692,-18.841841,-86.732277,17.047379,,,,,,,,,,,,,,,,,,,,,,,,,,,,,,,,,,,,,,,,,,,,,,,,,,,,,,,,,,,,,,,,,,,,,,,,,,,,,,,,,,,,,,,,,,,,,,,,,,,,,
1606509542.856031,97.000000,0.000000,4201.922852,4187.307617,4200.256348,4198.333496,4197.820313,4194.743652,4207.179688,4216.153809,4221.538574,4232.820313,4215.256348,4221.282227,4203.974121,4209.487305,3318.000000,4.000000,,,,0.000000,4.000000,4.000000,4.000000,4.000000,4.000000,4.000000,4.000000,4.000000,4.000000,4.000000,4.000000,4.000000,4.000000,4.000000,100.000000,,,,,,,,,,,,,,,,,,,,,,,,,,,,,,,,,,,,,,,,,,,,,,,,,,,,,,,,,,,,,,,,,,,,,,,,,,,,,,,,,,,,,,,,,,,,,,,,,,,,,,,,,,,,,,,,,
1606509542.863830,98.000000,0.000000,4195.256348,4189.743652,4195.512695,4193.077148,4205.000000,4201.538574,4209.102539,4204.358887,4204.615234,4212.692383,4221.922852,4201.538574,4196.153809,4201.794922,3288.000000,4.000000,,,,0.000000,4.000000,4.000000,4.000000,4.000000,4.000000,4.000000,4.000000,4.000000,4.000000,4.000000,4.000000,4.000000,4.000000,4.000000,100.000000,,,,,,,,,,,,,,,,,,,,,,,,,,,,,,,,,,,,,,,,,,,,,,,,,,,,,,,,,,,,,,,,,,,,,,,,,,,,,,,,,,,,,,,,,,,,,,,,,,,,,,,,,,,,,,,,,
1606509542.871630,99.000000,0.000000,4205.769043,4200.897461,4202.820313,4212.051270,4221.410156,4200.128418,4204.743652,4199.358887,4199.871582,4203.205078,4215.128418,4195.000000,4198.974121,4203.717773,3312.000000,4.000000,,,,0.000000,4.000000,4.000000,4.000000,4.000000,4.000000,4.000000,4.000000,4.000000,4.000000,4.000000,4.000000,4.000000,4.000000,4.000000,100.000000,,,,,,,,,,,,,,,,,,,,,,,,,,,,,,,,,,,,,,,,,,,,,,,,,,,,,,,,,,,,,,,,,,,,,,,,,,,,,,,,,,,,,,,,,,,,,,,,,,,,,,,,,,,,,,,,,
1606509542.879430,100.000000,0.000000,4206.922852,4206.410156,4203.974121,4217.179688,4218.461426,4199.102539,4199.615234,4200.256348,4200.128418,4208.717773,4198.333496,4209.487305,4196.410156,4203.846191,3299.000000,4.000000,,,,0.000000,4.000000,4.000000,4.000000,4.000000,4.000000,4.000000,4.000000,4.000000,4.000000,4.000000,4.000000,4.000000,4.000000,4.000000,100.000000,25.000000,0.000000,0.708834,-0.026794,-0.698364,0.095520,1.011734,-0.173831,0.029786,-18.692303,-85.835052,15.701533,,,,,,,,,,,,,,,,,,,,,,,,,,,,,,,,,,,,,,,,,,,,,,,,,,,,,,,,,,,,,,,,,,,,,,,,,,,,,,,,,,,,,,,,,,,,,,,,,,,,,
1606509542.887230,101.000000,0.000000,4201.410156,4193.717773,4198.846191,4206.025879,4197.820313,4202.307617,4207.436035,4203.077148,4204.871582,4215.512695,4203.077148,4200.256348,4192.179688,4197.820313,3318.000000,4.000000,,,,0.000000,4.000000,4.000000,4.000000,4.000000,4.000000,4.000000,4.000000,4.000000,4.000000,4.000000,4.000000,4.000000,4.000000,4.000000,100.000000,,,,,,,,,,,,,,,,,,,,,,,,,,,,,,,,,,,,,,,,,,,,,,,,,,,,,,,,,,,,,,,,,,,,,,,,,,,,,,,,,,,,,,,,,,,,,,,,,,,,,,,,,,,,,,,,,
1606509542.895030,102.000000,0.000000,4208.717773,4190.512695,4204.743652,4204.230957,4191.153809,4204.358887,4220.256348,4207.436035,4210.769043,4222.692383,4218.717773,4192.563965,4199.230957,4203.717773,3288.000000,4.000000,,,,0.000000,4.000000,4.000000,4.000000,4.000000,4.000000,4.000000,4.000000,4.000000,4.000000,4.000000,4.000000,4.000000,4.000000,4.000000,100.000000,,,,,,,,,,,,,,,,,,,,,,,,,,,,,,,,,,,,,,,,,,,,1.752531,1.633544,2.638523,0.945549,0.724082,1.066348,1.115208,1.278103,0.531097,0.489761,1.002055,1.048056,1.750905,0.631213,0.496323,0.735314,0.794109,1.168363,0.815453,0.372999,0.389392,1.281218,0.767374,0.381066,0.605739,0.381512,0.254768,0.325559,0.222512,0.250958,0.456139,0.638396,0.610605,0.325498,0.710195,0.647050,0.878755,0.928617,0.355071,0.530668,1.377660,1.746491,2.242286,0.859228,0.799139,3.349594,1.999172,3.329121,1.547567,1.428870,2.984813,2.116762,3.025991,0.825509,1.094317,2.495166,1.955026,2.199508,1.019171,1.081473,5.218453,1.516974,2.036041,0.883152,1.283660,4.513372,2.459531,2.081485,0.936812,0.735430
1606509542.902830,103.000000,0.000000,4212.051270,4199.871582,4207.179688,4209.871582,4204.102539,4206.666504,4219.230957,4205.512695,4204.871582,4217.307617,4210.256348,4203.077148,4196.410156,4208.717773,3312.000000,4.000000,,,,0.000000,4.000000,4.000000,4.000000,4.000000,4.000000,4.000000,4.000000,4.000000,4.000000,4.000000,4.000000,4.000000,4.000000,4.000000,100.000000,,,,,,,,,,,,,,,,,,,,,,,,,,,,,,,,,,,,,,,,,,,,,,,,,,,,,,,,,,,,,,,,,,,,,,,,,,,,,,,,,,,,,,,,,,,,,,,,,,,,,,,,,,,,,,,,,
1606509542.910630,104.000000,0.000000,4209.487305,4203.333496,4203.077148,4208.846191,4217.948730,4202.051270,4200.512695,4200.897461,4204.487305,4208.974121,4201.025879,4202.692383,4193.205078,4203.589844,3299.000000,4.000000,,,,0.000000,4.000000,4.000000,4.000000,4.000000,4.000000,4.000000,4.000000,4.000000,4.000000,4.000000,4.000000,4.000000,4.000000,4.000000,100.000000,26.000000,0.000000,0.708722,-0.026855,-0.698425,0.095886,1.015640,-0.174807,0.020996,-16.598764,-86.283669,15.252918,,,,,,,,,,,,,,,,,,,,,,,,,,,,,,,,,,,,,,,,,,,,,,,,,,,,,,,,,,,,,,,,,,,,,,,,,,,,,,,,,,,,,,,,,,,,,,,,,,,,,
1606509542.918330,105.000000,0.000000,4207.051270,4200.000000,4202.436035,4202.948730,4224.358887,4200.897461,4187.563965,4199.230957,4206.410156,4201.025879,4208.333496,4197.692383,4197.692383,4199.871582,3318.000000,4.000000,,,,0.000000,4.000000,4.000000,4.000000,4.000000,4.000000,4.000000,4.000000,4.000000,4.000000,4.000000,4.000000,4.000000,4.000000,4.000000,100.000000,,,,,,,,,,,,,,,,,,,,,,,,,,,,,,,,,,,,,,,,,,,,,,,,,,,,,,,,,,,,,,,,,,,,,,,,,,,,,,,,,,,,,,,,,,,,,,,,,,,,,,,,,,,,,,,,,
1606509542.926130,106.000000,0.000000,4205.128418,4196.282227,4201.666504,4203.333496,4210.897461,4210.000000,4202.948730,4198.461426,4197.692383,4202.307617,4207.563965,4207.563965,4196.666504,4201.410156,3288.000000,4.000000,,,,0.000000,4.000000,4.000000,4.000000,4.000000,4.000000,4.000000,4.000000,4.000000,4.000000,4.000000,4.000000,4.000000,4.000000,4.000000,100.000000,,,,,,,,,,,,,,,,,,,,,,,,,,,,,,,,,,,,,,,,,,,,,,,,,,,,,,,,,,,,,,,,,,,,,,,,,,,,,,,,,,,,,,,,,,,,,,,,,,,,,,,,,,,,,,,,,
1606509542.933930,107.000000,0.000000,4212.179688,4199.487305,4205.384766,4213.589844,4194.743652,4207.051270,4224.102539,4208.077148,4207.179688,4217.436035,4214.615234,4220.000000,4201.794922,4214.487305,3312.000000,4.000000,,,,0.000000,4.000000,4.000000,4.000000,4.000000,4.000000,4.000000,4.000000,4.000000,4.000000,4.000000,4.000000,4.000000,4.000000,4.000000,100.000000,,,,,,,,,,,,,,,,,,,,,,,,,,,,,,,,,,,,,,,,,,,,,,,,,,,,,,,,,,,,,,,,,,,,,,,,,,,,,,,,,,,,,,,,,,,,,,,,,,,,,,,,,,,,,,,,,
1606509542.941730,108.000000,0.000000,4223.717773,4203.974121,4216.282227,4220.256348,4206.025879,4195.897461,4209.102539,4217.692383,4223.846191,4225.641113,4232.436035,4220.897461,4218.333496,4228.589844,3299.000000,4.000000,,,,0.000000,4.000000,4.000000,4.000000,4.000000,4.000000,4.000000,4.000000,4.000000,4.000000,4.000000,4.000000,4.000000,4.000000,4.000000,100.000000,27.000000,0.000000,0.708646,-0.026611,-0.698486,0.096069,1.009781,-0.179202,0.025391,-17.346457,-87.031357,15.252918,,,,,,,,,,,,,,,,,,,,,,,,,,,,,,,,,,,,,,,,,,,,,,,,,,,,,,,,,,,,,,,,,,,,,,,,,,,,,,,,,,,,,,,,,,,,,,,,,,,,,
1606509542.949530,109.000000,0.000000,4221.666504,4202.436035,4218.077148,4213.461426,4217.563965,4200.897461,4195.000000,4203.846191,4209.102539,4216.922852,4225.897461,4217.051270,4217.307617,4226.025879,3318.000000,4.000000,,,,0.000000,4.000000,4.000000,4.000000,4.000000,4.000000,4.000000,4.000000,4.000000,4.000000,4.000000,4.000000,4.000000,4.000000,4.000000,100.000000,,,,,,,,,,,,,,,,,,,,,,,,,,,,,,,,,,,,,,,,,,,,,,,,,,,,,,,,,,,,,,,,,,,,,,,,,,,,,,,,,,,,,,,,,,,,,,,,,,,,,,,,,,,,,,,,,
1606509542.957330,110.000000,0.000000,4217.436035,4201.410156,4213.974121,4211.538574,4206.666504,4206.153809,4212.436035,4200.512695,4202.948730,4211.922852,4211.794922,4220.000000,4207.179688,4218.589844,3288.000000,4.000000,,,,0.000000,4.000000,4.000000,4.000000,4.000000,4.000000,4.000000,4.000000,4.000000,4.000000,4.000000,4.000000,4.000000,4.000000,4.000000,100.000000,,,,,,,,,,,,,,,,,,,,,,,,,,,,,,,,,,,,,,,,,,,,,,,,,,,,,,,,,,,,,,,,,,,,,,,,,,,,,,,,,,,,,,,,,,,,,,,,,,,,,,,,,,,,,,,,,
1606509542.965130,111.000000,0.000000,4216.410156,4202.692383,4206.666504,4217.179688,4208.077148,4200.897461,4215.897461,4211.666504,4212.948730,4217.051270,4211.282227,4217.948730,4195.256348,4212.948730,3312.000000,4.000000,,,,0.000000,4.000000,4.000000,4.000000,4.000000,4.000000,4.000000,4.000000,4.000000,4.000000,4.000000,4.000000,4.000000,4.000000,4.000000,100.000000,,,,,,,,,,,,,,,,,,,,,,,,,,,,,,,,,,,,,,,,,,,,,,,,,,,,,,,,,,,,,,,,,,,,,,,,,,,,,,,,,,,,,,,,,,,,,,,,,,,,,,,,,,,,,,,,,
1606509542.972930,112.000000,0.000000,4199.487305,4194.358887,4192.563965,4205.128418,4223.589844,4198.589844,4198.717773,4209.230957,4207.051270,4215.897461,4204.743652,4196.666504,4183.717773,4202.307617,3299.000000,4.000000,,,,0.000000,4.000000,4.000000,4.000000,4.000000,4.000000,4.000000,4.000000,4.000000,4.000000,4.000000,4.000000,4.000000,4.000000,4.000000,100.000000,28.000000,0.000000,0.708484,-0.026550,-0.698669,0.095947,1.012223,-0.187015,0.020508,-16.150148,-88.078125,15.252918,,,,,,,,,,,,,,,,,,,,,,,,,,,,,,,,,,,,,,,,,,,,,,,,,,,,,,,,,,,,,,,,,,,,,,,,,,,,,,,,,,,,,,,,,,,,,,,,,,,,,
1606509542.980731,113.000000,0.000000,4183.846191,4185.128418,4188.846191,4185.256348,4209.871582,4192.436035,4197.563965,4209.230957,4205.384766,4216.666504,4195.769043,4189.871582,4192.051270,4193.333496,3318.000000,4.000000,,,,0.000000,4.000000,4.000000,4.000000,4.000000,4.000000,4.000000,4.000000,4.000000,4.000000,4.000000,4.000000,4.000000,4.000000,4.000000,100.000000,,,,,,,,,,,,,,,,,,,,,,,,,,,,,,,,,,,,,,,,,,,,,,,,,,,,,,,,,,,,,,,,,,,,,,,,,,,,,,,,,,,,,,,,,,,,,,,,,,,,,,,,,,,,,,,,,
1606509542.988431,114.000000,0.000000,4185.256348,4186.922852,4195.000000,4191.410156,4189.102539,4183.589844,4201.025879,4210.256348,4209.615234,4215.641113,4200.512695,4207.692383,4194.615234,4189.487305,3288.000000,4.000000,,,,0.000000,4.000000,4.000000,4.000000,4.000000,4.000000,4.000000,4.000000,4.000000,4.000000,4.000000,4.000000,4.000000,4.000000,4.000000,100.000000,,,,,,,,,,,,,,,,,,,,,,,,,,,,,,,,,,,,,,,,,,,,,,,,,,,,,,,,,,,,,,,,,,,,,,,,,,,,,,,,,,,,,,,,,,,,,,,,,,,,,,,,,,,,,,,,,
1606509542.996231,115.000000,0.000000,4188.589844,4184.615234,4191.410156,4204.615234,4197.820313,4185.384766,4196.538574,4201.153809,4198.461426,4203.589844,4205.384766,4202.436035,4183.589844,4186.794922,3312.000000,4.000000,,,,0.000000,4.000000,4.000000,4.000000,4.000000,4.000000,4.000000,4.000000,4.000000,4.000000,4.000000,4.000000,4.000000,4.000000,4.000000,100.000000,,,,,,,,,,,,,,,,,,,,,,,,,,,,,,,,,,,,,,,,,,,,,,,,,,,,,,,,,,,,,,,,,,,,,,,,,,,,,,,,,,,,,,,,,,,,,,,,,,,,,,,,,,,,,,,,,
1606509543.004031,116.000000,0.000000,4182.436035,4176.794922,4181.153809,4188.333496,4202.051270,4189.230957,4197.051270,4197.179688,4184.743652,4184.487305,4192.436035,4177.563965,4179.230957,4182.563965,3299.000000,4.000000,,,,0.000000,4.000000,4.000000,4.000000,4.000000,4.000000,4.000000,4.000000,4.000000,4.000000,4.000000,4.000000,4.000000,4.000000,4.000000,100.000000,29.000000,0.000000,0.708517,-0.026550,-0.698669,0.095703,1.003922,-0.176761,0.015137,-15.851072,-85.087357,14.056611,,,,,,,,,,,,,,,,,,,,,,,,,,,,,,,,,,,,,,,,,,,,,,,,,,,,,,,,,,,,,,,,,,,,,,,,,,,,,,,,,,,,,,,,,,,,,,,,,,,,,
1606509543.011831,117.000000,0.000000,4186.025879,4178.589844,4186.153809,4179.230957,4191.153809,4184.743652,4191.538574,4197.436035,4188.205078,4184.615234,4183.974121,4181.666504,4182.692383,4185.512695,3318.000000,4.000000,,,,0.000000,4.000000,4.000000,4.000000,4.000000,4.000000,4.000000,4.000000,4.000000,4.000000,4.000000,4.000000,4.000000,4.000000,4.000000,100.000000,,,,,,,,,,,,,,,,,,,,,,,,,,,,,,,,,,,,,,,,,,,,,,,,,,,,,,,,,,,,,,,,,,,,,,,,,,,,,,,,,,,,,,,,,,,,,,,,,,,,,,,,,,,,,,,,,
1606509543.019631,118.000000,0.000000,4201.025879,4186.538574,4200.128418,4199.615234,4190.512695,4183.846191,4186.538574,4195.128418,4201.410156,4210.384766,4201.025879,4202.179688,4193.717773,4199.743652,3288.000000,4.000000,,,,0.000000,4.000000,4.000000,4.000000,4.000000,4.000000,4.000000,4.000000,4.000000,4.000000,4.000000,4.000000,4.000000,4.000000,4.000000,100.000000,,,,,,,,,,,,,,,,,,,,,,,,,,,,,,,,,,,,,,,,,,,,1.834944,1.429968,2.472881,0.976287,0.718355,1.041395,1.170421,1.273671,0.559754,0.516230,1.160586,0.972634,1.603480,0.636316,0.474658,0.780901,0.814041,1.119210,0.855330,0.401668,0.371318,1.439427,0.690800,0.503557,0.631827,0.323621,0.265470,0.337814,0.192711,0.248188,0.575360,0.614807,0.587926,0.303065,0.683917,0.892045,0.805789,0.933153,0.410944,0.508432,1.746600,1.516215,2.212750,0.948684,0.753835,3.731775,1.515317,3.165957,1.535568,1.415960,3.420705,1.747905,2.774026,0.834479,1.169584,3.103413,1.453299,2.019809,1.006653,1.079570,5.638947,1.233802,1.936444,0.963207,1.254187,4.823826,2.337382,1.909581,0.920425,0.692069
1606509543.027431,119.000000,0.000000,4203.205078,4188.846191,4202.436035,4203.846191,4198.717773,4192.436035,4197.436035,4198.846191,4203.846191,4219.358887,4215.384766,4203.846191,4206.282227,4206.538574,3312.000000,4.000000,,,,0.000000,4.000000,4.000000,4.000000,4.000000,4.000000,4.000000,4.000000,4.000000,4.000000,4.000000,4.000000,4.000000,4.000000,4.000000,100.000000,,,,,,,,,,,,,,,,,,,,,,,,,,,,,,,,,,,,,,,,,,,,,,,,,,,,,,,,,,,,,,,,,,,,,,,,,,,,,,,,,,,,,,,,,,,,,,,,,,,,,,,,,,,,,,,,,
1606509543.035231,120.000000,0.000000,4196.025879,4185.128418,4195.256348,4189.743652,4200.897461,4197.692383,4206.025879,4203.333496,4192.179688,4203.333496,4209.487305,4197.179688,4200.256348,4193.589844,3299.000000,4.000000,,,,0.000000,4.000000,4.000000,4.000000,4.000000,4.000000,4.000000,4.000000,4.000000,4.000000,4.000000,4.000000,4.000000,4.000000,4.000000,100.000000,30.000000,0.000000,0.708460,-0.026489,-0.698730,0.095703,1.013199,-0.179202,0.020996,-17.196918,-86.433205,15.103380,,,,,,,,,,,,,,,,,,,,,,,,,,,,,,,,,,,,,,,,,,,,,,,,,,,,,,,,,,,,,,,,,,,,,,,,,,,,,,,,,,,,,,,,,,,,,,,,,,,,,
1606509543.043032,121.000000,0.000000,4202.179688,4182.692383,4195.384766,4190.897461,4195.128418,4197.179688,4202.820313,4201.025879,4190.769043,4194.102539,4201.025879,4191.410156,4185.256348,4186.282227,3318.000000,4.000000,,,,0.000000,4.000000,4.000000,4.000000,4.000000,4.000000,4.000000,4.000000,4.000000,4.000000,4.000000,4.000000,4.000000,4.000000,4.000000,100.000000,,,,,,,,,,,,,,,,,,,,,,,,,,,,,,,,,,,,,,,,,,,,,,,,,,,,,,,,,,,,,,,,,,,,,,,,,,,,,,,,,,,,,,,,,,,,,,,,,,,,,,,,,,,,,,,,,
1606509543.050832,122.000000,0.000000,4220.897461,4192.179688,4210.384766,4203.461426,4191.538574,4193.205078,4198.077148,4201.025879,4205.512695,4204.743652,4203.717773,4206.025879,4197.307617,4207.179688,3288.000000,4.000000,,,,0.000000,4.000000,4.000000,4.000000,4.000000,4.000000,4.000000,4.000000,4.000000,4.000000,4.000000,4.000000,4.000000,4.000000,4.000000,100.000000,,,,,,,,,,,,,,,,,,,,,,,,,,,,,,,,,,,,,,,,,,,,,,,,,,,,,,,,,,,,,,,,,,,,,,,,,,,,,,,,,,,,,,,,,,,,,,,,,,,,,,,,,,,,,,,,,
1606509543.058632,123.000000,0.000000,4223.974121,4201.538574,4218.717773,4207.692383,4195.256348,4187.051270,4197.436035,4200.256348,4211.410156,4220.256348,4213.205078,4225.769043,4213.589844,4226.666504,3312.000000,4.000000,,,,0.000000,4.000000,4.000000,4.000000,4.000000,4.000000,4.000000,4.000000,4.000000,4.000000,4.000000,4.000000,4.000000,4.000000,4.000000,100.000000,,,,,,,,,,,,,,,,,,,,,,,,,,,,,,,,,,,,,,,,,,,,,,,,,,,,,,,,,,,,,,,,,,,,,,,,,,,,,,,,,,,,,,,,,,,,,,,,,,,,,,,,,,,,,,,,,
1606509543.066331,124.000000,0.000000,4207.948730,4191.025879,4207.563965,4198.333496,4194.358887,4184.487305,4200.128418,4200.000000,4198.974121,4211.794922,4213.589844,4202.563965,4203.205078,4210.000000,3299.000000,4.000000,,,,0.000000,4.000000,4.000000,4.000000,4.000000,4.000000,4.000000,4.000000,4.000000,4.000000,4.000000,4.000000,4.000000,4.000000,4.000000,100.000000,31.000000,0.000000,0.708474,-0.026550,-0.698730,0.095581,1.010758,-0.188968,0.039063,-17.645533,-87.180893,16.598764,,,,,,,,,,,,,,,,,,,,,,,,,,,,,,,,,,,,,,,,,,,,,,,,,,,,,,,,,,,,,,,,,,,,,,,,,,,,,,,,,,,,,,,,,,,,,,,,,,,,,
1606509543.074130,125.000000,0.000000,4200.256348,4181.410156,4192.307617,4193.974121,4188.077148,4187.051270,4200.512695,4201.410156,4186.666504,4189.743652,4200.000000,4171.025879,4189.230957,4187.179688,3318.000000,4.000000,,,,0.000000,4.000000,4.000000,4.000000,4.000000,4.000000,4.000000,4.000000,4.000000,4.000000,4.000000,4.000000,4.000000,4.000000,4.000000,100.000000,,,,,,,,,,,,,,,,,,,,,,,,,,,,,,,,,,,,,,,,,,,,,,,,,,,,,,,,,,,,,,,,,,,,,,,,,,,,,,,,,,,,,,,,,,,,,,,,,,,,,,,,,,,,,,,,,
1606509543.081929,126.000000,0.000000,4201.282227,4185.641113,4188.846191,4196.922852,4192.692383,4184.358887,4188.717773,4192.948730,4184.743652,4190.128418,4187.179688,4178.589844,4191.538574,4191.538574,3288.000000,4.000000,,,,0.000000,4.000000,4.000000,4.000000,4.000000,4.000000,4.000000,4.000000,4.000000,4.000000,4.000000,4.000000,4.000000,4.000000,4.000000,100.000000,,,,,,,,,,,,,,,,,,,,,,,,,,,,,,,,,,,,,,,,,,,,,,,,,,,,,,,,,,,,,,,,,,,,,,,,,,,,,,,,,,,,,,,,,,,,,,,,,,,,,,,,,,,,,,,,,
1606509543.089728,127.000000,0.000000,4192.307617,4178.846191,4184.358887,4190.897461,4199.102539,4187.563965,4185.000000,4184.615234,4180.384766,4196.922852,4183.077148,4192.948730,4192.563965,4202.820313,53.000000,4.000000,,,,0.000000,4.000000,4.000000,4.000000,4.000000,4.000000,4.000000,4.000000,4.000000,4.000000,4.000000,4.000000,4.000000,4.000000,4.000000,100.000000,,,,,,,,,,,,,,,,,,,,,,,,,,,,,,,,,,,,,,,,,,,,,,,,,,,,,,,,,,,,,,,,,,,,,,,,,,,,,,,,,,,,,,,,,,,,,,,,,,,,,,,,,,,,,,,,,
1606509543.097528,0.000000,0.000000,4182.436035,4165.897461,4172.307617,4179.102539,4196.666504,4198.974121,4195.641113,4182.692383,4166.922852,4176.794922,4184.230957,4180.000000,4177.307617,4196.538574,3384.000000,4.000000,,,,0.000000,4.000000,4.000000,4.000000,4.000000,4.000000,4.000000,4.000000,4.000000,4.000000,4.000000,4.000000,4.000000,4.000000,4.000000,100.000000,0.000000,0.000000,0.708312,-0.026489,-0.698914,0.095459,1.009293,-0.176761,0.012207,-17.645533,-87.180893,14.355688,,,,,,,,,,,,,,,,,,,,,,,,,,,,,,,,,,,,,,,,,,,,,,,,,,,,,,,,,,,,,,,,,,,,,,,,,,,,,,,,,,,,,,,,,,,,,,,,,,,,,
1606509543.105327,1.000000,0.000000,4182.179688,4166.410156,4167.307617,4178.846191,4205.000000,4201.282227,4199.230957,4186.666504,4162.948730,4158.333496,4181.666504,4170.384766,4168.846191,4187.563965,3496.000000,4.000000,,,,0.000000,4.000000,4.000000,4.000000,4.000000,4.000000,4.000000,4.000000,4.000000,4.000000,4.000000,4.000000,4.000000,4.000000,4.000000,100.000000,,,,,,,,,,,,,,,,,,,,,,,,,,,,,,,,,,,,,,,,,,,,,,,,,,,,,,,,,,,,,,,,,,,,,,,,,,,,,,,,,,,,,,,,,,,,,,,,,,,,,,,,,,,,,,,,,
1606509543.113126,2.000000,0.000000,4183.205078,4165.897461,4171.410156,4181.794922,4214.487305,4202.179688,4196.922852,4191.282227,4174.615234,4167.436035,4181.922852,4175.897461,4174.615234,4192.563965,3549.000000,4.000000,,,,0.000000,4.000000,4.000000,4.000000,4.000000,4.000000,4.000000,4.000000,4.000000,4.000000,4.000000,4.000000,4.000000,4.000000,4.000000,100.000000,,,,,,,,,,,,,,,,,,,,,,,,,,,,,,,,,,,,,,,,,,,,,,,,,,,,,,,,,,,,,,,,,,,,,,,,,,,,,,,,,,,,,,,,,,,,,,,,,,,,,,,,,,,,,,,,,
1606509543.120925,3.000000,0.000000,4198.589844,4174.487305,4186.282227,4185.512695,4205.769043,4199.230957,4196.282227,4196.794922,4195.256348,4193.717773,4198.205078,4190.897461,4190.000000,4213.077148,3424.000000,4.000000,,,,0.000000,4.000000,4.000000,4.000000,4.000000,4.000000,4.000000,4.000000,4.000000,4.000000,4.000000,4.000000,4.000000,4.000000,4.000000,100.000000,,,,,,,,,,,,,,,,,,,,,,,,,,,,,,,,,,,,,,,,,,,,,,,,,,,,,,,,,,,,,,,,,,,,,,,,,,,,,,,,,,,,,,,,,,,,,,,,,,,,,,,,,,,,,,,,,
1606509543.128625,4.000000,0.000000,4219.102539,4192.820313,4202.051270,4197.051270,4193.846191,4188.717773,4200.512695,4206.538574,4212.563965,4217.307617,4215.256348,4213.333496,4210.512695,4228.461426,3404.000000,4.000000,,,,0.000000,4.000000,4.000000,4.000000,4.000000,4.000000,4.000000,4.000000,4.000000,4.000000,4.000000,4.000000,4.000000,4.000000,4.000000,100.000000,1.000000,0.000000,0.708208,-0.026489,-0.699036,0.095337,1.021988,-0.173831,0.032227,-18.393225,-85.984589,15.851072,,,,,,,,,,,,,,,,,,,,,,,,,,,,,,,,,,,,,,,,,,,,,,,,,,,,,,,,,,,,,,,,,,,,,,,,,,,,,,,,,,,,,,,,,,,,,,,,,,,,,
1606509543.136425,5.000000,0.000000,4213.333496,4188.205078,4201.794922,4202.179688,4194.358887,4189.871582,4205.769043,4207.436035,4207.307617,4211.538574,4204.871582,4214.487305,4200.769043,4217.436035,3253.000000,4.000000,,,,0.000000,4.000000,4.000000,4.000000,4.000000,4.000000,4.000000,4.000000,4.000000,4.000000,4.000000,4.000000,4.000000,4.000000,4.000000,100.000000,,,,,,,,,,,,,,,,,,,,,,,,,,,,,,,,,,,,,,,,,,,,,,,,,,,,,,,,,,,,,,,,,,,,,,,,,,,,,,,,,,,,,,,,,,,,,,,,,,,,,,,,,,,,,,,,,
1606509543.144225,6.000000,0.000000,4204.871582,4182.692383,4197.307617,4199.487305,4206.922852,4194.871582,4201.153809,4199.615234,4200.384766,4196.282227,4192.820313,4199.487305,4181.153809,4206.538574,2902.000000,4.000000,,,,0.000000,4.000000,4.000000,4.000000,4.000000,4.000000,4.000000,4.000000,4.000000,4.000000,4.000000,4.000000,4.000000,4.000000,4.000000,100.000000,,,,,,,,,,,,,,,,,,,,,,,,,,,,,,,,,,,,,,,,,,,,2.181095,1.369041,2.204788,1.014969,0.681505,1.103659,1.177754,1.176102,0.583412,0.522337,1.459619,0.992438,1.391505,0.640529,0.435557,0.888092,0.842867,0.989520,0.864556,0.434233,0.326379,1.553562,0.621927,0.634772,0.636462,0.303720,0.282318,0.339703,0.169059,0.233896,0.715752,0.532774,0.537072,0.278804,0.638047,1.127171,0.761551,0.885360,0.452551,0.489572,2.080968,1.370245,2.011995,1.033913,0.731936,4.024591,1.207691,2.791741,1.478633,1.375575,3.900334,1.467692,2.409702,0.884750,1.260561,3.987281,1.182457,1.794961,1.024656,1.069251,6.145720,1.115114,1.847869,1.097744,1.189539,5.325381,2.218131,1.714943,0.923501,0.641590
1606509543.152025,7.000000,0.000000,4221.153809,4199.615234,4204.743652,4201.153809,4213.461426,4191.282227,4195.128418,4200.769043,4214.230957,4206.282227,4208.205078,4195.769043,4198.333496,4217.179688,2605.000000,4.000000,,,,0.000000,4.000000,4.000000,4.000000,4.000000,4.000000,4.000000,4.000000,4.000000,4.000000,4.000000,4.000000,4.000000,4.000000,4.000000,100.000000,,,,,,,,,,,,,,,,,,,,,,,,,,,,,,,,,,,,,,,,,,,,,,,,,,,,,,,,,,,,,,,,,,,,,,,,,,,,,,,,,,,,,,,,,,,,,,,,,,,,,,,,,,,,,,,,,
1606509543.159824,8.000000,0.000000,4237.692383,4206.794922,4215.897461,4210.641113,4201.282227,4192.051270,4200.256348,4212.692383,4220.256348,4221.666504,4228.461426,4210.000000,4224.230957,4230.128418,3280.000000,4.000000,,,,0.000000,4.000000,4.000000,4.000000,4.000000,4.000000,4.000000,4.000000,4.000000,4.000000,4.000000,4.000000,4.000000,4.000000,4.000000,100.000000,2.000000,0.000000,0.708012,-0.026367,-0.699280,0.095032,0.992203,-0.159670,0.017578,-17.795071,-85.835052,15.701533,,,,,,,,,,,,,,,,,,,,,,,,,,,,,,,,,,,,,,,,,,,,,,,,,,,,,,,,,,,,,,,,,,,,,,,,,,,,,,,,,,,,,,,,,,,,,,,,,,,,,
1606509543.167624,9.000000,0.000000,4234.358887,4198.974121,4218.589844,4216.922852,4186.666504,4197.307617,4205.512695,4210.000000,4207.051270,4221.025879,4228.077148,4220.512695,4223.077148,4233.333496,3551.000000,4.000000,,,,0.000000,4.000000,4.000000,4.000000,4.000000,4.000000,4.000000,4.000000,4.000000,4.000000,4.000000,4.000000,4.000000,4.000000,4.000000,100.000000,,,,,,,,,,,,,,,,,,,,,,,,,,,,,,,,,,,,,,,,,,,,,,,,,,,,,,,,,,,,,,,,,,,,,,,,,,,,,,,,,,,,,,,,,,,,,,,,,,,,,,,,,,,,,,,,,
1606509543.175424,10.000000,0.000000,4227.179688,4198.077148,4214.615234,4213.846191,4192.051270,4199.615234,4202.692383,4195.128418,4196.922852,4207.948730,4214.743652,4214.230957,4210.128418,4229.871582,3290.000000,4.000000,,,,0.000000,4.000000,4.000000,4.000000,4.000000,4.000000,4.000000,4.000000,4.000000,4.000000,4.000000,4.000000,4.000000,4.000000,4.000000,100.000000,,,,,,,,,,,,,,,,,,,,,,,,,,,,,,,,,,,,,,,,,,,,,,,,,,,,,,,,,,,,,,,,,,,,,,,,,,,,,,,,,,,,,,,,,,,,,,,,,,,,,,,,,,,,,,,,,
1606509543.183224,11.000000,0.000000,4235.128418,4205.897461,4216.794922,4216.666504,4206.282227,4198.077148,4203.461426,4205.641113,4204.615234,4208.205078,4215.512695,4214.358887,4209.230957,4231.666504,3308.000000,4.000000,,,,0.000000,4.000000,4.000000,4.000000,4.000000,4.000000,4.000000,4.000000,4.000000,4.000000,4.000000,4.000000,4.000000,4.000000,4.000000,100.000000,,,,,,,,,,,,,,,,,,,,,,,,,,,,,,,,,,,,,,,,,,,,,,,,,,,,,,,,,,,,,,,,,,,,,,,,,,,,,,,,,,,,,,,,,,,,,,,,,,,,,,,,,,,,,,,,,
1606509543.190924,12.000000,0.000000,4240.384766,4205.256348,4221.282227,4221.538574,4208.333496,4193.846191,4202.563965,4217.436035,4211.410156,4214.743652,4220.769043,4220.384766,4209.102539,4232.820313,3286.000000,4.000000,,,,0.000000,4.000000,4.000000,4.000000,4.000000,4.000000,4.000000,4.000000,4.000000,4.000000,4.000000,4.000000,4.000000,4.000000,4.000000,100.000000,3.000000,0.000000,0.707856,-0.026367,-0.699463,0.094849,0.998062,-0.172854,0.007813,-17.795071,-87.031357,14.505226,,,,,,,,,,,,,,,,,,,,,,,,,,,,,,,,,,,,,,,,,,,,,,,,,,,,,,,,,,,,,,,,,,,,,,,,,,,,,,,,,,,,,,,,,,,,,,,,,,,,,
1606509543.198725,13.000000,0.000000,4226.153809,4192.820313,4214.102539,4211.025879,4204.102539,4194.230957,4198.077148,4207.051270,4202.948730,4199.615234,4210.897461,4210.769043,4206.794922,4223.589844,3326.000000,4.000000,,,,0.000000,4.000000,4.000000,4.000000,4.000000,4.000000,4.000000,4.000000,4.000000,4.000000,4.000000,4.000000,4.000000,4.000000,4.000000,100.000000,,,,,,,,,,,,,,,,,,,,,,,,,,,,,,,,,,,,,,,,,,,,,,,,,,,,,,,,,,,,,,,,,,,,,,,,,,,,,,,,,,,,,,,,,,,,,,,,,,,,,,,,,,,,,,,,,
1606509543.206525,14.000000,0.000000,4215.256348,4189.743652,4203.846191,4202.307617,4201.282227,4202.051270,4206.410156,4202.820313,4197.436035,4190.512695,4197.820313,4198.077148,4200.000000,4214.230957,3290.000000,4.000000,,,,0.000000,4.000000,4.000000,4.000000,4.000000,4.000000,4.000000,4.000000,4.000000,4.000000,4.000000,4.000000,4.000000,4.000000,4.000000,100.000000,,,,,,,,,,,,,,,,,,,,,,,,,,,,,,,,,,,,,,,,,,,,,,,,,,,,,,,,,,,,,,,,,,,,,,,,,,,,,,,,,,,,,,,,,,,,,,,,,,,,,,,,,,,,,,,,,
1606509543.214325,15.000000,0.000000,4221.025879,4198.077148,4202.179688,4209.615234,4208.077148,4196.282227,4205.641113,4210.128418,4204.743652,4203.461426,4191.922852,4199.743652,4186.666504,4211.538574,3308.000000,4.000000,,,,0.000000,4.000000,4.000000,4.000000,4.000000,4.000000,4.000000,4.000000,4.000000,4.000000,4.000000,4.000000,4.000000,4.000000,4.000000,100.000000,,,,,,,,,,,,,,,,,,,,,,,,,,,,,,,,,,,,,,,,,,,,,,,,,,,,,,,,,,,,,,,,,,,,,,,,,,,,,,,,,,,,,,,,,,,,,,,,,,,,,,,,,,,,,,,,,
1606509543.222126,16.000000,0.000000,4216.666504,4192.051270,4202.051270,4205.641113,4215.512695,4183.974121,4188.717773,4205.769043,4199.743652,4195.128418,4194.102539,4196.153809,4181.666504,4207.051270,0.000000,4.000000,,,,0.000000,4.000000,4.000000,4.000000,4.000000,4.000000,4.000000,4.000000,4.000000,4.000000,4.000000,4.000000,4.000000,4.000000,4.000000,100.000000,4.000000,0.000000,0.707774,-0.026428,-0.699585,0.094543,1.003433,-0.168460,0.023438,-17.346457,-87.779053,15.701533,,,,,,,,,,,,,,,,,,,,,,,,,,,,,,,,,,,,,,,,,,,,,,,,,,,,,,,,,,,,,,,,,,,,,,,,,,,,,,,,,,,,,,,,,,,,,,,,,,,,,
1606509543.229926,17.000000,0.000000,4202.179688,4176.922852,4196.410156,4191.538574,4201.922852,4186.410156,4180.897461,4192.436035,4177.436035,4167.051270,4197.307617,4178.205078,4186.282227,4201.538574,0.000000,4.000000,,,,0.000000,4.000000,4.000000,4.000000,4.000000,4.000000,4.000000,4.000000,4.000000,4.000000,4.000000,4.000000,4.000000,4.000000,4.000000,100.000000,,,,,,,,,,,,,,,,,,,,,,,,,,,,,,,,,,,,,,,,,,,,,,,,,,,,,,,,,,,,,,,,,,,,,,,,,,,,,,,,,,,,,,,,,,,,,,,,,,,,,,,,,,,,,,,,,
1606509543.237726,18.000000,0.000000,4196.025879,4176.025879,4191.282227,4196.153809,4188.974121,4190.641113,4187.179688,4186.410156,4170.000000,4164.230957,4185.128418,4172.179688,4186.025879,4197.820313,0.000000,4.000000,,,,0.000000,4.000000,4.000000,4.000000,4.000000,4.000000,4.000000,4.000000,4.000000,4.000000,4.000000,4.000000,4.000000,4.000000,4.000000,100.000000,,,,,,,,,,,,,,,,,,,,,,,,,,,,,,,,,,,,,,,,,,,,,,,,,,,,,,,,,,,,,,,,,,,,,,,,,,,,,,,,,,,,,,,,,,,,,,,,,,,,,,,,,,,,,,,,,
1606509543.245527,19.000000,0.000000,4207.051270,4184.487305,4195.384766,4211.025879,4198.589844,4191.666504,4195.000000,4194.871582,4189.615234,4189.102539,4182.820313,4197.051270,4186.025879,4204.487305,0.000000,4.000000,,,,0.000000,4.000000,4.000000,4.000000,4.000000,4.000000,4.000000,4.000000,4.000000,4.000000,4.000000,4.000000,4.000000,4.000000,4.000000,100.000000,,,,,,,,,,,,,,,,,,,,,,,,,,,,,,,,,,,,,,,,,,,,,,,,,,,,,,,,,,,,,,,,,,,,,,,,,,,,,,,,,,,,,,,,,,,,,,,,,,,,,,,,,,,,,,,,,
1606509543.253327,20.000000,0.000000,4229.743652,4195.769043,4207.436035,4216.153809,4202.820313,4195.641113,4198.974121,4206.666504,4208.461426,4218.461426,4213.333496,4220.256348,4203.717773,4227.948730,0.000000,4.000000,,,,0.000000,4.000000,4.000000,4.000000,4.000000,4.000000,4.000000,4.000000,4.000000,4.000000,4.000000,4.000000,4.000000,4.000000,4.000000,100.000000,5.000000,0.000000,0.707797,-0.026672,-0.699585,0.094299,1.018082,-0.173342,0.023438,-17.047379,-87.330437,14.804303,,,,,,,,,,,,,,,,,,,,,,,,,,,,,,,,,,,,,,,,,,,,,,,,,,,,,,,,,,,,,,,,,,,,,,,,,,,,,,,,,,,,,,,,,,,,,,,,,,,,,
1606509543.261128,21.000000,0.000000,4234.743652,4202.948730,4210.897461,4213.205078,4197.436035,4201.922852,4200.641113,4201.666504,4199.358887,4221.282227,4231.922852,4208.846191,4221.410156,4237.692383,0.000000,4.000000,,,,0.000000,4.000000,4.000000,4.000000,4.000000,4.000000,4.000000,4.000000,4.000000,4.000000,4.000000,4.000000,4.000000,4.000000,4.000000,100.000000,,,,,,,,,,,,,,,,,,,,,,,,,,,,,,,,,,,,,,,,,,,,,,,,,,,,,,,,,,,,,,,,,,,,,,,,,,,,,,,,,,,,,,,,,,,,,,,,,,,,,,,,,,,,,,,,,
1606509543.268827,22.000000,0.000000,4222.563965,4200.769043,4206.025879,4212.179688,4201.666504,4202.563965,4201.153809,4194.230957,4188.461426,4196.922852,4215.512695,4195.512695,4216.794922,4221.538574,0.000000,4.000000,,,,0.000000,4.000000,4.000000,4.000000,4.000000,4.000000,4.000000,4.000000,4.000000,4.000000,4.000000,4.000000,4.000000,4.000000,4.000000,100.000000,,,,,,,,,,,,,,,,,,,,,,,,,,,,,,,,,,,,,,,,,,,,2.676481,1.365163,1.886162,1.041397,0.616224,1.181115,1.094936,0.999515,0.586712,0.507321,1.786415,1.049803,1.151647,0.630236,0.382566,1.003961,0.839641,0.798637,0.822647,0.462230,0.279307,1.582921,0.557249,0.754490,0.613077,0.318762,0.298722,0.333436,0.148687,0.210644,0.843183,0.413113,0.471032,0.259966,0.589587,1.279841,0.729156,0.804328,0.472599,0.474559,2.259889,1.310446,1.717422,1.095757,0.727532,4.133608,1.073812,2.301229,1.421145,1.309274,4.322304,1.292427,2.035431,0.952392,1.333324,4.910011,1.137466,1.560663,1.052275,1.053668,6.659668,1.127764,1.792546,1.239053,1.106663,5.891917,2.073544,1.537284,0.928210,0.593359
1606509543.276626,23.000000,0.000000,4226.538574,4203.589844,4212.307617,4218.589844,4205.512695,4200.512695,4201.922852,4203.846191,4204.743652,4209.743652,4206.410156,4215.769043,4212.179688,4219.230957,0.000000,4.000000,,,,0.000000,4.000000,4.000000,4.000000,4.000000,4.000000,4.000000,4.000000,4.000000,4.000000,4.000000,4.000000,4.000000,4.000000,4.000000,100.000000,,,,,,,,,,,,,,,,,,,,,,,,,,,,,,,,,,,,,,,,,,,,,,,,,,,,,,,,,,,,,,,,,,,,,,,,,,,,,,,,,,,,,,,,,,,,,,,,,,,,,,,,,,,,,,,,,
1606509543.284425,24.000000,0.000000,4235.897461,4204.358887,4219.743652,4214.871582,4201.410156,4199.358887,4198.846191,4204.487305,4211.922852,4238.205078,4214.615234,4224.487305,4218.589844,4229.102539,0.000000,4.000000,,,,0.000000,4.000000,4.000000,4.000000,4.000000,4.000000,4.000000,4.000000,4.000000,4.000000,4.000000,4.000000,4.000000,4.000000,4.000000,100.000000,6.000000,0.000000,0.707711,-0.026611,-0.699707,0.094055,1.010758,-0.177737,0.013672,-17.944611,-86.433205,16.150148,,,,,,,,,,,,,,,,,,,,,,,,,,,,,,,,,,,,,,,,,,,,,,,,,,,,,,,,,,,,,,,,,,,,,,,,,,,,,,,,,,,,,,,,,,,,,,,,,,,,,
1606509543.292224,25.000000,0.000000,4230.000000,4203.333496,4216.410156,4208.717773,4203.974121,4196.538574,4195.256348,4198.333496,4202.307617,4219.358887,4218.846191,4207.307617,4219.230957,4222.307617,0.000000,4.000000,,,,0.000000,4.000000,4.000000,4.000000,4.000000,4.000000,4.000000,4.000000,4.000000,4.000000,4.000000,4.000000,4.000000,4.000000,4.000000,100.000000,,,,,,,,,,,,,,,,,,,,,,,,,,,,,,,,,,,,,,,,,,,,,,,,,,,,,,,,,,,,,,,,,,,,,,,,,,,,,,,,,,,,,,,,,,,,,,,,,,,,,,,,,,,,,,,,,
1606509543.300023,26.000000,0.000000,4215.256348,4202.563965,4204.743652,4212.179688,4200.769043,4197.948730,4200.128418,4201.153809,4202.436035,4193.717773,4206.922852,4197.436035,4198.717773,4205.897461,0.000000,4.000000,,,,0.000000,4.000000,4.000000,4.000000,4.000000,4.000000,4.000000,4.000000,4.000000,4.000000,4.000000,4.000000,4.000000,4.000000,4.000000,100.000000,,,,,,,,,,,,,,,,,,,,,,,,,,,,,,,,,,,,,,,,,,,,,,,,,,,,,,,,,,,,,,,,,,,,,,,,,,,,,,,,,,,,,,,,,,,,,,,,,,,,,,,,,,,,,,,,,
1606509543.307823,27.000000,0.000000,4202.436035,4194.871582,4191.666504,4208.205078,4194.871582,4201.025879,4200.256348,4200.384766,4197.820313,4199.615234,4190.897461,4187.948730,4178.846191,4196.922852,0.000000,4.000000,,,,0.000000,4.000000,4.000000,4.000000,4.000000,4.000000,4.000000,4.000000,4.000000,4.000000,4.000000,4.000000,4.000000,4.000000,4.000000,100.000000,,,,,,,,,,,,,,,,,,,,,,,,,,,,,,,,,,,,,,,,,,,,,,,,,,,,,,,,,,,,,,,,,,,,,,,,,,,,,,,,,,,,,,,,,,,,,,,,,,,,,,,,,,,,,,,,,
1606509543.315622,28.000000,0.000000,4199.487305,4185.769043,4188.974121,4197.051270,4202.563965,4199.743652,4191.153809,4193.974121,4186.282227,4198.717773,4187.179688,4179.487305,4182.307617,4196.025879,0.000000,4.000000,,,,0.000000,4.000000,4.000000,4.000000,4.000000,4.000000,4.000000,4.000000,4.000000,4.000000,4.000000,4.000000,4.000000,4.000000,4.000000,100.000000,7.000000,0.000000,0.707715,-0.026428,-0.699768,0.093628,1.010758,-0.171878,0.016114,-17.944611,-86.732277,15.103380,,,,,,,,,,,,,,,,,,,,,,,,,,,,,,,,,,,,,,,,,,,,,,,,,,,,,,,,,,,,,,,,,,,,,,,,,,,,,,,,,,,,,,,,,,,,,,,,,,,,,
1606509543.323322,29.000000,0.000000,4202.436035,4186.410156,4189.615234,4191.153809,4208.461426,4198.205078,4187.436035,4193.333496,4188.461426,4184.102539,4191.922852,4181.666504,4190.128418,4197.692383,0.000000,4.000000,,,,0.000000,4.000000,4.000000,4.000000,4.000000,4.000000,4.000000,4.000000,4.000000,4.000000,4.000000,4.000000,4.000000,4.000000,4.000000,100.000000,,,,,,,,,,,,,,,,,,,,,,,,,,,,,,,,,,,,,,,,,,,,,,,,,,,,,,,,,,,,,,,,,,,,,,,,,,,,,,,,,,,,,,,,,,,,,,,,,,,,,,,,,,,,,,,,,
1606509543.331122,30.000000,0.000000,4195.769043,4187.051270,4182.692383,4184.743652,4203.205078,4199.230957,4196.666504,4197.563965,4186.153809,4176.666504,4184.615234,4183.205078,4186.282227,4195.897461,0.000000,4.000000,,,,0.000000,4.000000,4.000000,4.000000,4.000000,4.000000,4.000000,4.000000,4.000000,4.000000,4.000000,4.000000,4.000000,4.000000,4.000000,100.000000,,,,,,,,,,,,,,,,,,,,,,,,,,,,,,,,,,,,,,,,,,,,,,,,,,,,,,,,,,,,,,,,,,,,,,,,,,,,,,,,,,,,,,,,,,,,,,,,,,,,,,,,,,,,,,,,,
1606509543.338922,31.000000,0.000000,4201.666504,4188.717773,4190.641113,4190.384766,4199.102539,4196.153809,4202.307617,4202.948730,4187.051270,4190.000000,4181.025879,4190.897461,4193.333496,4202.948730,0.000000,4.000000,,,,0.000000,4.000000,4.000000,4.000000,4.000000,4.000000,4.000000,4.000000,4.000000,4.000000,4.000000,4.000000,4.000000,4.000000,4.000000,100.000000,,,,,,,,,,,,,,,,,,,,,,,,,,,,,,,,,,,,,,,,,,,,,,,,,,,,,,,,,,,,,,,,,,,,,,,,,,,,,,,,,,,,,,,,,,,,,,,,,,,,,,,,,,,,,,,,,
1606509543.346722,32.000000,0.000000,4218.077148,4197.051270,4207.307617,4203.717773,4198.846191,4194.102539,4201.025879,4205.256348,4203.589844,4213.461426,4196.410156,4205.000000,4201.538574,4210.641113,0.000000,4.000000,,,,0.000000,4.000000,4.000000,4.000000,4.000000,4.000000,4.000000,4.000000,4.000000,4.000000,4.000000,4.000000,4.000000,4.000000,4.000000,100.000000,8.000000,0.000000,0.707768,-0.026306,-0.699768,0.093262,1.010758,-0.174807,0.026856,-18.243687,-86.283669,16.449226,,,,,,,,,,,,,,,,,,,,,,,,,,,,,,,,,,,,,,,,,,,,,,,,,,,,,,,,,,,,,,,,,,,,,,,,,,,,,,,,,,,,,,,,,,,,,,,,,,,,,
1606509543.354522,33.000000,0.000000,4206.922852,4193.077148,4200.384766,4195.000000,4199.743652,4202.436035,4199.358887,4196.794922,4195.384766,4197.051270,4197.820313,4202.436035,4186.282227,4197.820313,0.000000,4.000000,,,,0.000000,4.000000,4.000000,4.000000,4.000000,4.000000,4.000000,4.000000,4.000000,4.000000,4.000000,4.000000,4.000000,4.000000,4.000000,100.000000,,,,,,,,,,,,,,,,,,,,,,,,,,,,,,,,,,,,,,,,,,,,,,,,,,,,,,,,,,,,,,,,,,,,,,,,,,,,,,,,,,,,,,,,,,,,,,,,,,,,,,,,,,,,,,,,,
1606509543.362322,34.000000,0.000000,4202.436035,4190.897461,4197.948730,4194.358887,4201.153809,4202.563965,4195.512695,4195.256348,4183.461426,4178.717773,4196.025879,4203.974121,4187.820313,4202.692383,0.000000,4.000000,,,,0.000000,4.000000,4.000000,4.000000,4.000000,4.000000,4.000000,4.000000,4.000000,4.000000,4.000000,4.000000,4.000000,4.000000,4.000000,100.000000,,,,,,,,,,,,,,,,,,,,,,,,,,,,,,,,,,,,,,,,,,,,,,,,,,,,,,,,,,,,,,,,,,,,,,,,,,,,,,,,,,,,,,,,,,,,,,,,,,,,,,,,,,,,,,,,,
1606509543.370122,35.000000,0.000000,4226.153809,4205.897461,4216.666504,4218.461426,4202.051270,4196.282227,4195.128418,4205.000000,4205.128418,4209.230957,4215.000000,4217.436035,4211.410156,4227.948730,0.000000,4.000000,,,,0.000000,4.000000,4.000000,4.000000,4.000000,4.000000,4.000000,4.000000,4.000000,4.000000,4.000000,4.000000,4.000000,4.000000,4.000000,100.000000,,,,,,,,,,,,,,,,,,,,,,,,,,,,,,,,,,,,,,,,,,,,,,,,,,,,,,,,,,,,,,,,,,,,,,,,,,,,,,,,,,,,,,,,,,,,,,,,,,,,,,,,,,,,,,,,,
1606509543.377923,36.000000,0.000000,4228.205078,4209.230957,4220.512695,4220.512695,4203.205078,4197.820313,4196.410156,4203.846191,4208.205078,4223.717773,4221.794922,4207.692383,4210.512695,4222.563965,0.000000,4.000000,,,,0.000000,4.000000,4.000000,4.000000,4.000000,4.000000,4.000000,4.000000,4.000000,4.000000,4.000000,4.000000,4.000000,4.000000,4.000000,100.000000,9.000000,0.000000,0.708024,-0.026001,-0.699585,0.092773,1.022965,-0.195315,0.041016,-17.795071,-85.535973,15.252918,,,,,,,,,,,,,,,,,,,,,,,,,,,,,,,,,,,,,,,,,,,,,,,,,,,,,,,,,,,,,,,,,,,,,,,,,,,,,,,,,,,,,,,,,,,,,,,,,,,,,
1606509543.385723,37.000000,0.000000,4212.436035,4200.000000,4211.153809,4201.538574,4199.358887,4195.512695,4198.333496,4196.666504,4183.974121,4195.769043,4200.641113,4199.230957,4197.051270,4204.358887,0.000000,4.000000,,,,0.000000,4.000000,4.000000,4.000000,4.000000,4.000000,4.000000,4.000000,4.000000,4.000000,4.000000,4.000000,4.000000,4.000000,4.000000,100.000000,,,,,,,,,,,,,,,,,,,,,,,,,,,,,,,,,,,,,,,,,,,,,,,,,,,,,,,,,,,,,,,,,,,,,,,,,,,,,,,,,,,,,,,,,,,,,,,,,,,,,,,,,,,,,,,,,
1606509543.393423,38.000000,0.000000,4221.025879,4200.769043,4215.384766,4198.717773,4188.846191,4187.436035,4200.000000,4201.153809,4192.051270,4192.436035,4194.358887,4213.333496,4200.384766,4212.563965,0.000000,4.000000,,,,0.000000,4.000000,4.000000,4.000000,4.000000,4.000000,4.000000,4.000000,4.000000,4.000000,4.000000,4.000000,4.000000,4.000000,4.000000,100.000000,,,,,,,,,,,,,,,,,,,,,,,,,,,,,,,,,,,,,,,,,,,,3.115974,1.438801,1.580691,1.032872,0.536774,1.216538,0.966476,0.788568,0.556776,0.476028,2.010988,1.157047,0.929064,0.595721,0.325424,1.078197,0.812833,0.591110,0.725918,0.481133,0.259781,1.506029,0.497762,0.847148,0.569681,0.353403,0.307817,0.327777,0.129883,0.183851,0.922613,0.292116,0.404700,0.250625,0.553094,1.313298,0.690373,0.715569,0.469382,0.461161,2.224201,1.329861,1.425181,1.115817,0.730523,3.979252,1.081216,1.798974,1.391581,1.231392,4.516455,1.242280,1.714062,1.005271,1.357881,5.542070,1.297855,1.344869,1.058747,1.050035,6.964219,1.243014,1.746030,1.336070,1.023547,6.259127,1.942372,1.390565,0.911427,0.560307
1606509543.401223,39.000000,0.000000,4225.128418,4200.641113,4216.410156,4205.641113,4185.512695,4184.871582,4194.102539,4202.307617,4204.615234,4209.102539,4212.307617,4214.358887,4205.128418,4216.538574,0.000000,4.000000,,,,0.000000,4.000000,4.000000,4.000000,4.000000,4.000000,4.000000,4.000000,4.000000,4.000000,4.000000,4.000000,4.000000,4.000000,4.000000,100.000000,,,,,,,,,,,,,,,,,,,,,,,,,,,,,,,,,,,,,,,,,,,,,,,,,,,,,,,,,,,,,,,,,,,,,,,,,,,,,,,,,,,,,,,,,,,,,,,,,,,,,,,,,,,,,,,,,
1606509543.409024,40.000000,0.000000,4204.358887,4188.846191,4204.487305,4196.153809,4187.179688,4185.897461,4192.051270,4198.589844,4188.974121,4202.563965,4214.102539,4200.256348,4199.743652,4203.461426,0.000000,4.000000,,,,0.000000,4.000000,4.000000,4.000000,4.000000,4.000000,4.000000,4.000000,4.000000,4.000000,4.000000,4.000000,4.000000,4.000000,4.000000,100.000000,10.000000,0.000000,0.708304,-0.026245,-0.699341,0.092407,1.040543,-0.217288,0.041993,-17.346457,-87.031357,14.804303,,,,,,,,,,,,,,,,,,,,,,,,,,,,,,,,,,,,,,,,,,,,,,,,,,,,,,,,,,,,,,,,,,,,,,,,,,,,,,,,,,,,,,,,,,,,,,,,,,,,,
1606509543.416824,41.000000,0.000000,4197.948730,4185.256348,4201.922852,4186.538574,4188.333496,4183.974121,4200.000000,4206.538574,4192.436035,4197.948730,4204.358887,4203.077148,4196.153809,4202.820313,0.000000,4.000000,,,,0.000000,4.000000,4.000000,4.000000,4.000000,4.000000,4.000000,4.000000,4.000000,4.000000,4.000000,4.000000,4.000000,4.000000,4.000000,100.000000,,,,,,,,,,,,,,,,,,,,,,,,,,,,,,,,,,,,,,,,,,,,,,,,,,,,,,,,,,,,,,,,,,,,,,,,,,,,,,,,,,,,,,,,,,,,,,,,,,,,,,,,,,,,,,,,,
1606509543.424624,42.000000,0.000000,4202.307617,4192.563965,4203.846191,4197.051270,4195.384766,4186.025879,4200.641113,4208.077148,4207.563965,4198.717773,4198.077148,4205.256348,4190.000000,4203.077148,0.000000,4.000000,,,,0.000000,4.000000,4.000000,4.000000,4.000000,4.000000,4.000000,4.000000,4.000000,4.000000,4.000000,4.000000,4.000000,4.000000,4.000000,100.000000,,,,,,,,,,,,,,,,,,,,,,,,,,,,,,,,,,,,,,,,,,,,,,,,,,,,,,,,,,,,,,,,,,,,,,,,,,,,,,,,,,,,,,,,,,,,,,,,,,,,,,,,,,,,,,,,,
1606509543.432425,43.000000,0.000000,4198.589844,4198.846191,4199.615234,4210.256348,4201.025879,4190.384766,4191.922852,4199.230957,4196.538574,4195.641113,4197.820313,4189.358887,4194.358887,4199.487305,0.000000,4.000000,,,,0.000000,4.000000,4.000000,4.000000,4.000000,4.000000,4.000000,4.000000,4.000000,4.000000,4.000000,4.000000,4.000000,4.000000,4.000000,100.000000,,,,,,,,,,,,,,,,,,,,,,,,,,,,,,,,,,,,,,,,,,,,,,,,,,,,,,,,,,,,,,,,,,,,,,,,,,,,,,,,,,,,,,,,,,,,,,,,,,,,,,,,,,,,,,,,,
1606509543.440225,44.000000,0.000000,4203.589844,4205.512695,4204.230957,4208.846191,4204.487305,4186.538574,4186.666504,4195.769043,4188.333496,4208.589844,4197.948730,4192.948730,4207.948730,4207.051270,0.000000,4.000000,,,,0.000000,4.000000,4.000000,4.000000,4.000000,4.000000,4.000000,4.000000,4.000000,4.000000,4.000000,4.000000,4.000000,4.000000,4.000000,100.000000,11.000000,0.000000,0.708492,-0.027466,-0.699280,0.091064,1.056168,-0.137209,-0.009277,-18.991379,-85.835052,16.000610,,,,,,,,,,,,,,,,,,,,,,,,,,,,,,,,,,,,,,,,,,,,,,,,,,,,,,,,,,,,,,,,,,,,,,,,,,,,,,,,,,,,,,,,,,,,,,,,,,,,,
1606509543.448026,45.000000,0.000000,4199.230957,4198.974121,4201.153809,4199.358887,4215.769043,4186.666504,4182.692383,4187.692383,4185.897461,4198.333496,4179.487305,4197.179688,4189.487305,4198.077148,0.000000,4.000000,,,,0.000000,4.000000,4.000000,4.000000,4.000000,4.000000,4.000000,4.000000,4.000000,4.000000,4.000000,4.000000,4.000000,4.000000,4.000000,100.000000,,,,,,,,,,,,,,,,,,,,,,,,,,,,,,,,,,,,,,,,,,,,,,,,,,,,,,,,,,,,,,,,,,,,,,,,,,,,,,,,,,,,,,,,,,,,,,,,,,,,,,,,,,,,,,,,,
1606509543.455826,46.000000,0.000000,4188.717773,4189.487305,4190.512695,4197.820313,4215.641113,4193.461426,4187.820313,4181.922852,4174.358887,4170.512695,4175.384766,4189.743652,4172.436035,4184.102539,0.000000,4.000000,,,,0.000000,4.000000,4.000000,4.000000,4.000000,4.000000,4.000000,4.000000,4.000000,4.000000,4.000000,4.000000,4.000000,4.000000,4.000000,100.000000,,,,,,,,,,,,,,,,,,,,,,,,,,,,,,,,,,,,,,,,,,,,,,,,,,,,,,,,,,,,,,,,,,,,,,,,,,,,,,,,,,,,,,,,,,,,,,,,,,,,,,,,,,,,,,,,,
1606509543.463626,47.000000,0.000000,4200.384766,4196.794922,4201.794922,4202.563965,4188.589844,4192.051270,4204.358887,4197.179688,4185.384766,4187.820313,4204.615234,4200.384766,4191.410156,4201.922852,0.000000,4.000000,,,,0.000000,4.000000,4.000000,4.000000,4.000000,4.000000,4.000000,4.000000,4.000000,4.000000,4.000000,4.000000,4.000000,4.000000,4.000000,100.000000,,,,,,,,,,,,,,,,,,,,,,,,,,,,,,,,,,,,,,,,,,,,,,,,,,,,,,,,,,,,,,,,,,,,,,,,,,,,,,,,,,,,,,,,,,,,,,,,,,,,,,,,,,,,,,,,,
1606509543.471326,48.000000,0.000000,4215.384766,4204.358887,4218.461426,4205.897461,4174.743652,4183.717773,4205.128418,4212.179688,4214.487305,4233.205078,4223.589844,4210.128418,4207.307617,4221.538574,0.000000,4.000000,,,,0.000000,4.000000,4.000000,4.000000,4.000000,4.000000,4.000000,4.000000,4.000000,4.000000,4.000000,4.000000,4.000000,4.000000,4.000000,100.000000,12.000000,0.000000,0.707006,-0.028198,-0.700989,0.089233,1.009781,-0.185550,0.005371,-19.439995,-85.535973,15.252918,,,,,,,,,,,,,,,,,,,,,,,,,,,,,,,,,,,,,,,,,,,,,,,,,,,,,,,,,,,,,,,,,,,,,,,,,,,,,,,,,,,,,,,,,,,,,,,,,,,,,
1606509543.479127,49.000000,0.000000,4215.000000,4202.820313,4216.410156,4201.666504,4186.922852,4190.128418,4199.358887,4212.051270,4222.307617,4242.692383,4217.948730,4208.461426,4206.922852,4215.000000,0.000000,4.000000,,,,0.000000,4.000000,4.000000,4.000000,4.000000,4.000000,4.000000,4.000000,4.000000,4.000000,4.000000,4.000000,4.000000,4.000000,4.000000,100.000000,,,,,,,,,,,,,,,,,,,,,,,,,,,,,,,,,,,,,,,,,,,,,,,,,,,,,,,,,,,,,,,,,,,,,,,,,,,,,,,,,,,,,,,,,,,,,,,,,,,,,,,,,,,,,,,,,
1606509543.486927,50.000000,0.000000,4215.641113,4201.282227,4214.358887,4200.000000,4189.230957,4204.487305,4209.871582,4211.666504,4211.282227,4224.871582,4211.922852,4215.641113,4208.717773,4207.563965,0.000000,4.000000,,,,0.000000,4.000000,4.000000,4.000000,4.000000,4.000000,4.000000,4.000000,4.000000,4.000000,4.000000,4.000000,4.000000,4.000000,4.000000,100.000000,,,,,,,,,,,,,,,,,,,,,,,,,,,,,,,,,,,,,,,,,,,,,,,,,,,,,,,,,,,,,,,,,,,,,,,,,,,,,,,,,,,,,,,,,,,,,,,,,,,,,,,,,,,,,,,,,
1606509543.494727,51.000000,0.000000,4208.846191,4194.743652,4206.666504,4201.922852,4180.000000,4198.717773,4215.897461,4206.922852,4199.358887,4216.794922,4201.538574,4214.102539,4200.769043,4201.282227,0.000000,4.000000,,,,0.000000,4.000000,4.000000,4.000000,4.000000,4.000000,4.000000,4.000000,4.000000,4.000000,4.000000,4.000000,4.000000,4.000000,4.000000,100.000000,,,,,,,,,,,,,,,,,,,,,,,,,,,,,,,,,,,,,,,,,,,,,,,,,,,,,,,,,,,,,,,,,,,,,,,,,,,,,,,,,,,,,,,,,,,,,,,,,,,,,,,,,,,,,,,,,
1606509543.502527,52.000000,0.000000,4187.563965,4182.051270,4185.641113,4192.179688,4182.179688,4186.282227,4202.820313,4197.563965,4193.205078,4209.487305,4185.769043,4183.717773,4185.000000,4187.051270,0.000000,4.000000,,,,0.000000,4.000000,4.000000,4.000000,4.000000,4.000000,4.000000,4.000000,4.000000,4.000000,4.000000,4.000000,4.000000,4.000000,4.000000,100.000000,13.000000,0.000000,0.705096,-0.028564,-0.703064,0.087891,0.991714,-0.187503,-0.012207,-18.393225,-86.433205,15.402456,,,,,,,,,,,,,,,,,,,,,,,,,,,,,,,,,,,,,,,,,,,,,,,,,,,,,,,,,,,,,,,,,,,,,,,,,,,,,,,,,,,,,,,,,,,,,,,,,,,,,
1606509543.510327,53.000000,0.000000,4179.102539,4181.025879,4184.102539,4190.000000,4193.717773,4190.769043,4195.512695,4197.307617,4193.974121,4199.743652,4182.948730,4174.871582,4188.846191,4181.794922,0.000000,4.000000,,,,0.000000,4.000000,4.000000,4.000000,4.000000,4.000000,4.000000,4.000000,4.000000,4.000000,4.000000,4.000000,4.000000,4.000000,4.000000,100.000000,,,,,,,,,,,,,,,,,,,,,,,,,,,,,,,,,,,,,,,,,,,,,,,,,,,,,,,,,,,,,,,,,,,,,,,,,,,,,,,,,,,,,,,,,,,,,,,,,,,,,,,,,,,,,,,,,
1606509543.518127,54.000000,0.000000,4182.436035,4188.205078,4195.641113,4200.128418,4207.563965,4196.666504,4197.051270,4199.102539,4193.717773,4195.769043,4186.153809,4197.948730,4191.922852,4184.871582,0.000000,4.000000,,,,0.000000,4.000000,4.000000,4.000000,4.000000,4.000000,4.000000,4.000000,4.000000,4.000000,4.000000,4.000000,4.000000,4.000000,4.000000,100.000000,,,,,,,,,,,,,,,,,,,,,,,,,,,,,,,,,,,,,,,,,,,,3.336318,1.702683,1.345105,0.978482,0.463932,1.194601,0.899488,0.601288,0.492725,0.437005,2.076586,1.400066,0.768488,0.538051,0.276925,1.086579,0.826963,0.417373,0.593397,0.490374,0.285424,1.334365,0.448889,0.901344,0.524389,0.400710,0.308073,0.338143,0.112876,0.159607,0.930794,0.207645,0.359658,0.251027,0.532960,1.235548,0.639834,0.647770,0.447970,0.446949,2.019456,1.434497,1.232908,1.087524,0.733983,3.559472,1.250865,1.399037,1.395949,1.165089,4.344121,1.377498,1.474651,1.018084,1.321525,5.620387,1.656645,1.189130,1.024169,1.076340,6.777655,1.488391,1.675550,1.355843,0.953221,6.165055,1.917959,1.289355,0.862033,0.553602
1606509543.525927,55.000000,0.000000,4191.538574,4195.000000,4200.256348,4204.871582,4213.589844,4196.410156,4193.974121,4198.077148,4196.153809,4200.769043,4194.487305,4205.512695,4184.871582,4190.769043,0.000000,4.000000,,,,0.000000,4.000000,4.000000,4.000000,4.000000,4.000000,4.000000,4.000000,4.000000,4.000000,4.000000,4.000000,4.000000,4.000000,4.000000,100.000000,,,,,,,,,,,,,,,,,,,,,,,,,,,,,,,,,,,,,,,,,,,,,,,,,,,,,,,,,,,,,,,,,,,,,,,,,,,,,,,,,,,,,,,,,,,,,,,,,,,,,,,,,,,,,,,,,
1606509543.533727,56.000000,0.000000,4210.641113,4202.563965,4207.692383,4212.179688,4207.051270,4198.205078,4194.615234,4200.128418,4204.230957,4203.461426,4207.051270,4199.358887,4188.589844,4202.179688,0.000000,4.000000,,,,0.000000,4.000000,4.000000,4.000000,4.000000,4.000000,4.000000,4.000000,4.000000,4.000000,4.000000,4.000000,4.000000,4.000000,4.000000,100.000000,14.000000,0.000000,0.703956,-0.029724,-0.704346,0.086365,0.982437,-0.127932,-0.035157,-17.944611,-86.732277,15.103380,,,,,,,,,,,,,,,,,,,,,,,,,,,,,,,,,,,,,,,,,,,,,,,,,,,,,,,,,,,,,,,,,,,,,,,,,,,,,,,,,,,,,,,,,,,,,,,,,,,,,
1606509543.541425,57.000000,0.000000,4217.820313,4202.948730,4211.794922,4215.256348,4206.922852,4200.512695,4199.230957,4200.000000,4198.205078,4195.641113,4205.512695,4195.256348,4195.384766,4208.077148,0.000000,4.000000,,,,0.000000,4.000000,4.000000,4.000000,4.000000,4.000000,4.000000,4.000000,4.000000,4.000000,4.000000,4.000000,4.000000,4.000000,4.000000,100.000000,,,,,,,,,,,,,,,,,,,,,,,,,,,,,,,,,,,,,,,,,,,,,,,,,,,,,,,,,,,,,,,,,,,,,,,,,,,,,,,,,,,,,,,,,,,,,,,,,,,,,,,,,,,,,,,,,
1606509543.549223,58.000000,0.000000,4216.025879,4202.948730,4210.000000,4205.384766,4206.666504,4198.974121,4200.641113,4199.743652,4195.512695,4203.333496,4202.563965,4201.025879,4201.922852,4213.333496,0.000000,4.000000,,,,0.000000,4.000000,4.000000,4.000000,4.000000,4.000000,4.000000,4.000000,4.000000,4.000000,4.000000,4.000000,4.000000,4.000000,4.000000,100.000000,,,,,,,,,,,,,,,,,,,,,,,,,,,,,,,,,,,,,,,,,,,,,,,,,,,,,,,,,,,,,,,,,,,,,,,,,,,,,,,,,,,,,,,,,,,,,,,,,,,,,,,,,,,,,,,,,
1606509543.557020,59.000000,0.000000,4219.743652,4205.128418,4214.230957,4209.358887,4196.025879,4199.871582,4203.461426,4206.282227,4211.282227,4221.538574,4208.461426,4209.615234,4206.410156,4221.025879,0.000000,4.000000,,,,0.000000,4.000000,4.000000,4.000000,4.000000,4.000000,4.000000,4.000000,4.000000,4.000000,4.000000,4.000000,4.000000,4.000000,4.000000,100.000000,,,,,,,,,,,,,,,,,,,,,,,,,,,,,,,,,,,,,,,,,,,,,,,,,,,,,,,,,,,,,,,,,,,,,,,,,,,,,,,,,,,,,,,,,,,,,,,,,,,,,,,,,,,,,,,,,
1606509543.564718,60.000000,0.000000,4218.461426,4196.922852,4217.436035,4219.615234,4194.871582,4201.794922,4204.871582,4208.461426,4212.820313,4220.384766,4204.871582,4211.025879,4202.563965,4215.769043,0.000000,4.000000,,,,0.000000,4.000000,4.000000,4.000000,4.000000,4.000000,4.000000,4.000000,4.000000,4.000000,4.000000,4.000000,4.000000,4.000000,4.000000,100.000000,15.000000,0.000000,0.703810,-0.029602,-0.704712,0.084595,0.990738,-0.125002,-0.027344,-16.748302,-85.984589,15.402456,,,,,,,,,,,,,,,,,,,,,,,,,,,,,,,,,,,,,,,,,,,,,,,,,,,,,,,,,,,,,,,,,,,,,,,,,,,,,,,,,,,,,,,,,,,,,,,,,,,,,
1606509543.572516,61.000000,0.000000,4210.384766,4191.794922,4206.282227,4206.794922,4202.051270,4200.256348,4201.282227,4200.128418,4200.128418,4205.897461,4197.692383,4207.179688,4196.666504,4205.128418,0.000000,4.000000,,,,0.000000,4.000000,4.000000,4.000000,4.000000,4.000000,4.000000,4.000000,4.000000,4.000000,4.000000,4.000000,4.000000,4.000000,4.000000,100.000000,,,,,,,,,,,,,,,,,,,,,,,,,,,,,,,,,,,,,,,,,,,,,,,,,,,,,,,,,,,,,,,,,,,,,,,,,,,,,,,,,,,,,,,,,,,,,,,,,,,,,,,,,,,,,,,,,
1606509543.580215,62.000000,0.000000,4211.410156,4201.282227,4200.641113,4201.794922,4200.384766,4198.974121,4201.153809,4202.179688,4206.410156,4200.897461,4206.153809,4196.922852,4199.615234,4203.974121,0.000000,4.000000,,,,0.000000,4.000000,4.000000,4.000000,4.000000,4.000000,4.000000,4.000000,4.000000,4.000000,4.000000,4.000000,4.000000,4.000000,4.000000,100.000000,,,,,,,,,,,,,,,,,,,,,,,,,,,,,,,,,,,,,,,,,,,,,,,,,,,,,,,,,,,,,,,,,,,,,,,,,,,,,,,,,,,,,,,,,,,,,,,,,,,,,,,,,,,,,,,,,
1606509543.588013,63.000000,0.000000,4216.922852,4205.000000,4210.128418,4215.384766,4198.077148,4195.512695,4201.410156,4213.205078,4217.051270,4201.666504,4210.128418,4192.436035,4201.282227,4201.922852,0.000000,4.000000,,,,0.000000,4.000000,4.000000,4.000000,4.000000,4.000000,4.000000,4.000000,4.000000,4.000000,4.000000,4.000000,4.000000,4.000000,4.000000,100.000000,,,,,,,,,,,,,,,,,,,,,,,,,,,,,,,,,,,,,,,,,,,,,,,,,,,,,,,,,,,,,,,,,,,,,,,,,,,,,,,,,,,,,,,,,,,,,,,,,,,,,,,,,,,,,,,,,
1606509543.595812,64.000000,0.000000,4215.769043,4198.846191,4215.000000,4214.358887,4200.256348,4195.769043,4201.025879,4208.077148,4206.282227,4200.512695,4194.743652,4202.820313,4195.641113,4203.974121,3372.000000,4.000000,,,,0.000000,4.000000,4.000000,4.000000,4.000000,4.000000,4.000000,4.000000,4.000000,4.000000,4.000000,4.000000,4.000000,4.000000,4.000000,100.000000,16.000000,0.000000,0.704489,-0.028870,-0.704224,0.083252,0.986831,-0.130373,0.002441,-17.047379,-86.582741,16.000610,,,,,,,,,,,,,,,,,,,,,,,,,,,,,,,,,,,,,,,,,,,,,,,,,,,,,,,,,,,,,,,,,,,,,,,,,,,,,,,,,,,,,,,,,,,,,,,,,,,,,
1606509543.603611,65.000000,0.000000,4217.692383,4198.717773,4211.410156,4205.769043,4197.948730,4202.948730,4214.871582,4200.128418,4194.615234,4203.333496,4196.538574,4209.615234,4199.871582,4214.102539,3493.000000,4.000000,,,,0.000000,4.000000,4.000000,4.000000,4.000000,4.000000,4.000000,4.000000,4.000000,4.000000,4.000000,4.000000,4.000000,4.000000,4.000000,100.000000,,,,,,,,,,,,,,,,,,,,,,,,,,,,,,,,,,,,,,,,,,,,,,,,,,,,,,,,,,,,,,,,,,,,,,,,,,,,,,,,,,,,,,,,,,,,,,,,,,,,,,,,,,,,,,,,,
1606509543.611410,66.000000,0.000000,4226.922852,4205.256348,4212.436035,4210.256348,4201.922852,4204.230957,4212.051270,4209.487305,4204.358887,4216.282227,4221.922852,4203.205078,4215.769043,4221.025879,3539.000000,4.000000,,,,0.000000,4.000000,4.000000,4.000000,4.000000,4.000000,4.000000,4.000000,4.000000,4.000000,4.000000,4.000000,4.000000,4.000000,4.000000,100.000000,,,,,,,,,,,,,,,,,,,,,,,,,,,,,,,,,,,,,,,,,,,,,,,,,,,,,,,,,,,,,,,,,,,,,,,,,,,,,,,,,,,,,,,,,,,,,,,,,,,,,,,,,,,,,,,,,
1606509543.619209,67.000000,0.000000,4223.333496,4205.512695,4213.333496,4211.538574,4205.641113,4202.820313,4200.128418,4217.563965,4212.563965,4224.102539,4217.436035,4198.717773,4215.000000,4214.230957,3432.000000,4.000000,,,,0.000000,4.000000,4.000000,4.000000,4.000000,4.000000,4.000000,4.000000,4.000000,4.000000,4.000000,4.000000,4.000000,4.000000,4.000000,100.000000,,,,,,,,,,,,,,,,,,,,,,,,,,,,,,,,,,,,,,,,,,,,,,,,,,,,,,,,,,,,,,,,,,,,,,,,,,,,,,,,,,,,,,,,,,,,,,,,,,,,,,,,,,,,,,,,,
1606509543.626910,68.000000,0.000000,4200.128418,4193.846191,4201.153809,4196.282227,4202.563965,4203.077148,4211.153809,4207.692383,4195.769043,4204.743652,4180.641113,4193.461426,4191.410156,4194.871582,3399.000000,4.000000,,,,0.000000,4.000000,4.000000,4.000000,4.000000,4.000000,4.000000,4.000000,4.000000,4.000000,4.000000,4.000000,4.000000,4.000000,4.000000,100.000000,17.000000,0.000000,0.705717,-0.029419,-0.703064,0.082458,1.011246,-0.125490,0.025391,-17.196918,-86.732277,15.851072,,,,,,,,,,,,,,,,,,,,,,,,,,,,,,,,,,,,,,,,,,,,,,,,,,,,,,,,,,,,,,,,,,,,,,,,,,,,,,,,,,,,,,,,,,,,,,,,,,,,,
1606509543.634710,69.000000,0.000000,4193.461426,4190.256348,4196.538574,4192.307617,4201.922852,4197.436035,4209.487305,4201.410156,4187.692383,4189.615234,4177.179688,4193.205078,4185.897461,4189.358887,3250.000000,4.000000,,,,0.000000,4.000000,4.000000,4.000000,4.000000,4.000000,4.000000,4.000000,4.000000,4.000000,4.000000,4.000000,4.000000,4.000000,4.000000,100.000000,,,,,,,,,,,,,,,,,,,,,,,,,,,,,,,,,,,,,,,,,,,,,,,,,,,,,,,,,,,,,,,,,,,,,,,,,,,,,,,,,,,,,,,,,,,,,,,,,,,,,,,,,,,,,,,,,
1606509543.642510,70.000000,0.000000,4212.051270,4199.487305,4204.871582,4208.077148,4201.794922,4189.743652,4190.769043,4202.948730,4204.358887,4206.794922,4204.743652,4205.256348,4200.641113,4205.512695,2894.000000,4.000000,,,,0.000000,4.000000,4.000000,4.000000,4.000000,4.000000,4.000000,4.000000,4.000000,4.000000,4.000000,4.000000,4.000000,4.000000,4.000000,100.000000,,,,,,,,,,,,,,,,,,,,,,,,,,,,,,,,,,,,,,,,,,,,3.321743,2.304651,1.194610,0.892006,0.417502,1.155714,1.011075,0.478329,0.411044,0.398450,2.034799,1.892236,0.684013,0.471321,0.247476,1.053951,0.970894,0.308746,0.460893,0.492846,0.351064,1.115283,0.419465,0.911819,0.493442,0.461579,0.306187,0.374563,0.100436,0.142188,0.863419,0.179851,0.351905,0.259706,0.522619,1.091218,0.588913,0.617358,0.419056,0.430299,1.759868,1.639458,1.187064,1.020816,0.736328,2.969579,1.676973,1.176995,1.428123,1.137127,3.812145,1.791521,1.302295,0.992504,1.232939,5.108954,2.246160,1.126969,0.951240,1.132688,6.004958,1.956155,1.567484,1.303448,0.900208,5.538627,2.135169,1.234677,0.790927,0.575917
1606509543.650311,71.000000,0.000000,4220.128418,4204.615234,4206.794922,4216.538574,4200.512695,4188.461426,4191.666504,4201.410156,4210.641113,4228.461426,4217.179688,4206.025879,4203.589844,4216.666504,2588.000000,4.000000,,,,0.000000,4.000000,4.000000,4.000000,4.000000,4.000000,4.000000,4.000000,4.000000,4.000000,4.000000,4.000000,4.000000,4.000000,4.000000,100.000000,,,,,,,,,,,,,,,,,,,,,,,,,,,,,,,,,,,,,,,,,,,,,,,,,,,,,,,,,,,,,,,,,,,,,,,,,,,,,,,,,,,,,,,,,,,,,,,,,,,,,,,,,,,,,,,,,
1606509543.658111,72.000000,0.000000,4214.230957,4203.717773,4204.487305,4210.384766,4200.384766,4194.358887,4203.974121,4206.282227,4203.717773,4220.769043,4216.666504,4196.282227,4205.256348,4213.974121,3282.000000,4.000000,,,,0.000000,4.000000,4.000000,4.000000,4.000000,4.000000,4.000000,4.000000,4.000000,4.000000,4.000000,4.000000,4.000000,4.000000,4.000000,100.000000,18.000000,0.000000,0.707284,-0.029907,-0.701538,0.081848,1.048844,-0.133303,0.047364,-16.150148,-86.283669,15.252918,,,,,,,,,,,,,,,,,,,,,,,,,,,,,,,,,,,,,,,,,,,,,,,,,,,,,,,,,,,,,,,,,,,,,,,,,,,,,,,,,,,,,,,,,,,,,,,,,,,,,
1606509543.665911,73.000000,0.000000,4218.077148,4200.641113,4204.871582,4205.000000,4198.077148,4196.922852,4200.384766,4208.974121,4205.256348,4200.384766,4214.230957,4202.820313,4213.461426,4214.615234,3578.000000,4.000000,,,,0.000000,4.000000,4.000000,4.000000,4.000000,4.000000,4.000000,4.000000,4.000000,4.000000,4.000000,4.000000,4.000000,4.000000,4.000000,100.000000,,,,,,,,,,,,,,,,,,,,,,,,,,,,,,,,,,,,,,,,,,,,,,,,,,,,,,,,,,,,,,,,,,,,,,,,,,,,,,,,,,,,,,,,,,,,,,,,,,,,,,,,,,,,,,,,,
1606509543.673712,74.000000,0.000000,4219.615234,4195.256348,4205.256348,4204.487305,4195.000000,4190.256348,4193.974121,4200.512695,4200.000000,4198.077148,4200.897461,4209.230957,4207.820313,4210.128418,3316.000000,4.000000,,,,0.000000,4.000000,4.000000,4.000000,4.000000,4.000000,4.000000,4.000000,4.000000,4.000000,4.000000,4.000000,4.000000,4.000000,4.000000,100.000000,,,,,,,,,,,,,,,,,,,,,,,,,,,,,,,,,,,,,,,,,,,,,,,,,,,,,,,,,,,,,,,,,,,,,,,,,,,,,,,,,,,,,,,,,,,,,,,,,,,,,,,,,,,,,,,,,
1606509543.681512,75.000000,0.000000,4208.846191,4196.153809,4207.051270,4200.641113,4196.666504,4185.000000,4194.871582,4198.077148,4188.077148,4203.974121,4196.538574,4202.051270,4196.538574,4201.025879,3311.000000,4.000000,,,,0.000000,4.000000,4.000000,4.000000,4.000000,4.000000,4.000000,4.000000,4.000000,4.000000,4.000000,4.000000,4.000000,4.000000,4.000000,100.000000,,,,,,,,,,,,,,,,,,,,,,,,,,,,,,,,,,,,,,,,,,,,,,,,,,,,,,,,,,,,,,,,,,,,,,,,,,,,,,,,,,,,,,,,,,,,,,,,,,,,,,,,,,,,,,,,,
1606509543.689312,76.000000,0.000000,4208.461426,4201.666504,4213.205078,4199.487305,4207.179688,4191.410156,4196.922852,4202.179688,4189.871582,4202.051270,4208.205078,4208.974121,4195.000000,4207.563965,3347.000000,4.000000,,,,0.000000,4.000000,4.000000,4.000000,4.000000,4.000000,4.000000,4.000000,4.000000,4.000000,4.000000,4.000000,4.000000,4.000000,4.000000,100.000000,19.000000,0.000000,0.707977,-0.030518,-0.700806,0.081909,1.030777,-0.158206,0.066407,-17.047379,-86.283669,15.701533,,,,,,,,,,,,,,,,,,,,,,,,,,,,,,,,,,,,,,,,,,,,,,,,,,,,,,,,,,,,,,,,,,,,,,,,,,,,,,,,,,,,,,,,,,,,,,,,,,,,,
1606509543.697113,77.000000,0.000000,4212.307617,4198.846191,4212.051270,4206.538574,4213.846191,4199.230957,4204.615234,4202.436035,4198.461426,4206.025879,4207.948730,4216.922852,4198.461426,4215.000000,3301.000000,4.000000,,,,0.000000,4.000000,4.000000,4.000000,4.000000,4.000000,4.000000,4.000000,4.000000,4.000000,4.000000,4.000000,4.000000,4.000000,4.000000,100.000000,,,,,,,,,,,,,,,,,,,,,,,,,,,,,,,,,,,,,,,,,,,,,,,,,,,,,,,,,,,,,,,,,,,,,,,,,,,,,,,,,,,,,,,,,,,,,,,,,,,,,,,,,,,,,,,,,
1606509543.704813,78.000000,0.000000,4209.487305,4197.307617,4212.179688,4213.717773,4203.974121,4197.436035,4205.000000,4209.487305,4209.102539,4232.307617,4205.769043,4213.717773,4208.461426,4215.384766,3316.000000,4.000000,,,,0.000000,4.000000,4.000000,4.000000,4.000000,4.000000,4.000000,4.000000,4.000000,4.000000,4.000000,4.000000,4.000000,4.000000,4.000000,100.000000,,,,,,,,,,,,,,,,,,,,,,,,,,,,,,,,,,,,,,,,,,,,,,,,,,,,,,,,,,,,,,,,,,,,,,,,,,,,,,,,,,,,,,,,,,,,,,,,,,,,,,,,,,,,,,,,,
1606509543.712613,79.000000,0.000000,4206.538574,4195.769043,4216.794922,4207.436035,4188.333496,4197.051270,4204.230957,4222.307617,4220.641113,4247.436035,4212.051270,4216.666504,4209.230957,4216.153809,3311.000000,4.000000,,,,0.000000,4.000000,4.000000,4.000000,4.000000,4.000000,4.000000,4.000000,4.000000,4.000000,4.000000,4.000000,4.000000,4.000000,4.000000,100.000000,,,,,,,,,,,,,,,,,,,,,,,,,,,,,,,,,,,,,,,,,,,,,,,,,,,,,,,,,,,,,,,,,,,,,,,,,,,,,,,,,,,,,,,,,,,,,,,,,,,,,,,,,,,,,,,,,
1606509543.720413,80.000000,0.000000,4207.179688,4191.282227,4210.641113,4196.922852,4189.743652,4199.230957,4204.743652,4216.666504,4219.102539,4235.769043,4207.307617,4215.128418,4200.512695,4213.589844,3347.000000,4.000000,,,,0.000000,4.000000,4.000000,4.000000,4.000000,4.000000,4.000000,4.000000,4.000000,4.000000,4.000000,4.000000,4.000000,4.000000,4.000000,100.000000,20.000000,0.000000,0.708666,-0.031555,-0.700012,0.082336,1.041520,-0.143557,0.045899,-17.196918,-86.732277,15.103380,,,,,,,,,,,,,,,,,,,,,,,,,,,,,,,,,,,,,,,,,,,,,,,,,,,,,,,,,,,,,,,,,,,,,,,,,,,,,,,,,,,,,,,,,,,,,,,,,,,,,
1606509543.728213,81.000000,0.000000,4213.205078,4197.692383,4207.307617,4203.846191,4203.333496,4198.077148,4198.077148,4204.487305,4211.410156,4223.974121,4208.974121,4209.102539,4207.307617,4213.589844,3301.000000,4.000000,,,,0.000000,4.000000,4.000000,4.000000,4.000000,4.000000,4.000000,4.000000,4.000000,4.000000,4.000000,4.000000,4.000000,4.000000,4.000000,100.000000,,,,,,,,,,,,,,,,,,,,,,,,,,,,,,,,,,,,,,,,,,,,,,,,,,,,,,,,,,,,,,,,,,,,,,,,,,,,,,,,,,,,,,,,,,,,,,,,,,,,,,,,,,,,,,,,,
1606509543.736013,82.000000,0.000000,4217.307617,4206.410156,4217.179688,4210.769043,4212.307617,4197.179688,4190.769043,4202.436035,4212.692383,4225.384766,4217.948730,4211.922852,4213.077148,4220.897461,3316.000000,4.000000,,,,0.000000,4.000000,4.000000,4.000000,4.000000,4.000000,4.000000,4.000000,4.000000,4.000000,4.000000,4.000000,4.000000,4.000000,4.000000,100.000000,,,,,,,,,,,,,,,,,,,,,,,,,,,,,,,,,,,,,,,,,,,,,,,,,,,,,,,,,,,,,,,,,,,,,,,,,,,,,,,,,,,,,,,,,,,,,,,,,,,,,,,,,,,,,,,,,
