title:jake_stroop_1, start timestamp:1607645967.944055, stop timestamp:1607646017.416165, headset type:EPOCPLUS, headset serial:4A2C14BB, headset firmware:634, channels:120, sampling rate:eeg_128;mot_32;pow_8, samples:6346      , version:2.1, cqMode:0
Timestamp,EEG.Counter,EEG.Interpolated,EEG.AF3,EEG.F7,EEG.F3,EEG.FC5,EEG.T7,EEG.P7,EEG.O1,EEG.O2,EEG.P8,EEG.T8,EEG.FC6,EEG.F4,EEG.F8,EEG.AF4,EEG.RawCq,EEG.Battery,MarkerIndex,MarkerType,MarkerValueInt,EEG.MarkerHardware,CQ.AF3,CQ.F7,CQ.F3,CQ.FC5,CQ.T7,CQ.P7,CQ.O1,CQ.O2,CQ.P8,CQ.T8,CQ.FC6,CQ.F4,CQ.F8,CQ.AF4,CQ.Overall,MOT.CounterMems,MOT.InterpolatedMems,MOT.Q0,MOT.Q1,MOT.Q2,MOT.Q3,MOT.AccX,MOT.AccY,MOT.AccZ,MOT.MagX,MOT.MagY,MOT.MagZ,POW.AF3.Theta,POW.AF3.Alpha,POW.AF3.BetaL,POW.AF3.BetaH,POW.AF3.Gamma,POW.F7.Theta,POW.F7.Alpha,POW.F7.BetaL,POW.F7.BetaH,POW.F7.Gamma,POW.F3.Theta,POW.F3.Alpha,POW.F3.BetaL,POW.F3.BetaH,POW.F3.Gamma,POW.FC5.Theta,POW.FC5.Alpha,POW.FC5.BetaL,POW.FC5.BetaH,POW.FC5.Gamma,POW.T7.Theta,POW.T7.Alpha,POW.T7.BetaL,POW.T7.BetaH,POW.T7.Gamma,POW.P7.Theta,POW.P7.Alpha,POW.P7.BetaL,POW.P7.BetaH,POW.P7.Gamma,POW.O1.Theta,POW.O1.Alpha,POW.O1.BetaL,POW.O1.BetaH,POW.O1.Gamma,POW.O2.Theta,POW.O2.Alpha,POW.O2.BetaL,POW.O2.BetaH,POW.O2.Gamma,POW.P8.Theta,POW.P8.Alpha,POW.P8.BetaL,POW.P8.BetaH,POW.P8.Gamma,POW.T8.Theta,POW.T8.Alpha,POW.T8.BetaL,POW.T8.BetaH,POW.T8.Gamma,POW.FC6.Theta,POW.FC6.Alpha,POW.FC6.BetaL,POW.FC6.BetaH,POW.FC6.Gamma,POW.F4.Theta,POW.F4.Alpha,POW.F4.BetaL,POW.F4.BetaH,POW.F4.Gamma,POW.F8.Theta,POW.F8.Alpha,POW.F8.BetaL,POW.F8.BetaH,POW.F8.Gamma,POW.AF4.Theta,POW.AF4.Alpha,POW.AF4.BetaL,POW.AF4.BetaH,POW.AF4.Gamma
1607645967.944055,72.000000,0.000000,4206.282227,4211.922852,4197.563965,4180.000000,4196.025879,4196.153809,4200.641113,4213.717773,4205.897461,4201.410156,4216.538574,4201.538574,4199.102539,4205.000000,3467.000000,4.000000,,,,0.000000,4.000000,4.000000,4.000000,4.000000,4.000000,4.000000,4.000000,4.000000,4.000000,4.000000,4.000000,4.000000,4.000000,4.000000,100.000000,18.000000,0.000000,0.573490,0.107056,-0.796265,0.160034,0.984390,-0.139651,-0.303716,-20.187687,-157.015335,-11.813535,,,,,,,,,,,,,,,,,,,,,,,,,,,,,,,,,,,,,,,,,,,,,,,,,,,,,,,,,,,,,,,,,,,,,,
1607645967.951752,73.000000,0.000000,4211.410156,4207.948730,4205.769043,4183.717773,4208.333496,4197.051270,4201.410156,4217.692383,4209.615234,4208.589844,4219.743652,4203.461426,4202.307617,4209.102539,3633.000000,4.000000,,,,0.000000,4.000000,4.000000,4.000000,4.000000,4.000000,4.000000,4.000000,4.000000,4.000000,4.000000,4.000000,4.000000,4.000000,4.000000,100.000000,,,,,,,,,,,,,,,,,,,,,,,,,,,,,,,,,,,,,,,,,,,,,,,,,,,,,,,,,,,,,,,,,,,,,,,,,,,,,,,,,,
1607645967.959548,74.000000,0.000000,4221.922852,4209.487305,4217.820313,4186.794922,4209.615234,4202.436035,4202.820313,4219.615234,4215.000000,4219.358887,4221.153809,4207.051270,4211.794922,4220.256348,3575.000000,4.000000,,,,0.000000,4.000000,4.000000,4.000000,4.000000,4.000000,4.000000,4.000000,4.000000,4.000000,4.000000,4.000000,4.000000,4.000000,4.000000,100.000000,,,,,,,,,,,,,5.430953,0.686047,0.324290,0.188299,0.083273,2.629582,0.665364,0.275579,0.324668,0.286934,1.422041,0.573724,0.220115,0.122501,0.125023,1.669127,0.459587,0.158744,0.095256,0.083789,1.572639,0.886227,0.242326,0.491190,0.158469,0.731595,0.715953,0.417267,0.166592,0.096474,0.110769,0.128796,0.080656,0.054641,0.062233,1.074517,0.483208,0.287606,0.160362,0.091221,1.552964,0.830335,0.314380,0.241736,0.149268,2.674888,1.106715,0.299657,0.256277,0.128155,3.453933,0.662540,0.310321,0.156120,0.087786,1.594651,0.882145,0.279170,0.130043,0.070309,10.784998,1.555976,0.485793,0.173733,0.097667,7.403316,0.900719,0.507620,0.158119,0.063788
1607645967.967344,75.000000,0.000000,4216.922852,4208.974121,4212.692383,4183.846191,4203.717773,4199.743652,4202.436035,4216.538574,4214.615234,4217.307617,4214.871582,4205.000000,4212.179688,4216.922852,3482.000000,4.000000,,,,0.000000,4.000000,4.000000,4.000000,4.000000,4.000000,4.000000,4.000000,4.000000,4.000000,4.000000,4.000000,4.000000,4.000000,4.000000,100.000000,,,,,,,,,,,,,,,,,,,,,,,,,,,,,,,,,,,,,,,,,,,,,,,,,,,,,,,,,,,,,,,,,,,,,,,,,,,,,,,,,,
1607645967.975140,76.000000,0.000000,4214.743652,4211.922852,4210.256348,4183.717773,4216.282227,4202.051270,4202.563965,4217.307617,4215.897461,4215.384766,4215.384766,4204.358887,4213.205078,4213.461426,3016.000000,4.000000,,,,0.000000,4.000000,4.000000,4.000000,4.000000,4.000000,4.000000,4.000000,4.000000,4.000000,4.000000,4.000000,4.000000,4.000000,4.000000,100.000000,19.000000,0.000000,0.573189,0.107849,-0.796509,0.159363,0.986831,-0.129397,-0.308110,-18.991379,-156.566727,-11.364920,,,,,,,,,,,,,,,,,,,,,,,,,,,,,,,,,,,,,,,,,,,,,,,,,,,,,,,,,,,,,,,,,,,,,,
1607645967.982937,77.000000,0.000000,4221.410156,4220.384766,4217.820313,4187.179688,4219.102539,4205.512695,4204.871582,4220.512695,4219.230957,4220.512695,4219.615234,4209.230957,4217.692383,4223.077148,1309.000000,4.000000,,,,0.000000,4.000000,4.000000,4.000000,4.000000,4.000000,4.000000,4.000000,4.000000,4.000000,4.000000,4.000000,4.000000,4.000000,4.000000,100.000000,,,,,,,,,,,,,,,,,,,,,,,,,,,,,,,,,,,,,,,,,,,,,,,,,,,,,,,,,,,,,,,,,,,,,,,,,,,,,,,,,,
1607645967.990733,78.000000,0.000000,4212.948730,4212.436035,4213.589844,4185.641113,4202.948730,4199.358887,4203.333496,4217.948730,4210.512695,4214.743652,4211.410156,4207.563965,4209.871582,4219.102539,3575.000000,4.000000,,,,0.000000,4.000000,4.000000,4.000000,4.000000,4.000000,4.000000,4.000000,4.000000,4.000000,4.000000,4.000000,4.000000,4.000000,4.000000,100.000000,,,,,,,,,,,,,,,,,,,,,,,,,,,,,,,,,,,,,,,,,,,,,,,,,,,,,,,,,,,,,,,,,,,,,,,,,,,,,,,,,,
1607645967.998529,79.000000,0.000000,4204.487305,4202.051270,4201.922852,4182.692383,4198.974121,4195.897461,4200.256348,4213.461426,4200.256348,4202.563965,4199.230957,4201.538574,4197.820313,4206.025879,3482.000000,4.000000,,,,0.000000,4.000000,4.000000,4.000000,4.000000,4.000000,4.000000,4.000000,4.000000,4.000000,4.000000,4.000000,4.000000,4.000000,4.000000,100.000000,,,,,,,,,,,,,,,,,,,,,,,,,,,,,,,,,,,,,,,,,,,,,,,,,,,,,,,,,,,,,,,,,,,,,,,,,,,,,,,,,,
1607645968.006326,80.000000,0.000000,4210.769043,4207.051270,4200.897461,4183.205078,4205.512695,4194.358887,4201.794922,4213.589844,4204.871582,4202.563965,4198.717773,4204.743652,4198.717773,4206.794922,3016.000000,4.000000,,,,0.000000,4.000000,4.000000,4.000000,4.000000,4.000000,4.000000,4.000000,4.000000,4.000000,4.000000,4.000000,4.000000,4.000000,4.000000,100.000000,20.000000,0.000000,0.572897,0.108765,-0.796692,0.158875,0.965347,-0.127443,-0.321294,-21.084917,-156.267639,-13.009842,,,,,,,,,,,,,,,,,,,,,,,,,,,,,,,,,,,,,,,,,,,,,,,,,,,,,,,,,,,,,,,,,,,,,,
1607645968.014122,81.000000,0.000000,4210.128418,4205.769043,4204.615234,4184.102539,4201.794922,4191.410156,4203.077148,4215.512695,4212.948730,4210.000000,4205.769043,4207.820313,4201.538574,4212.820313,1309.000000,4.000000,,,,0.000000,4.000000,4.000000,4.000000,4.000000,4.000000,4.000000,4.000000,4.000000,4.000000,4.000000,4.000000,4.000000,4.000000,4.000000,100.000000,,,,,,,,,,,,,,,,,,,,,,,,,,,,,,,,,,,,,,,,,,,,,,,,,,,,,,,,,,,,,,,,,,,,,,,,,,,,,,,,,,
1607645968.021818,82.000000,0.000000,4201.666504,4199.102539,4203.589844,4185.512695,4202.307617,4195.512695,4201.538574,4216.153809,4209.487305,4212.563965,4207.692383,4207.948730,4201.410156,4214.102539,3575.000000,4.000000,,,,0.000000,4.000000,4.000000,4.000000,4.000000,4.000000,4.000000,4.000000,4.000000,4.000000,4.000000,4.000000,4.000000,4.000000,4.000000,100.000000,,,,,,,,,,,,,,,,,,,,,,,,,,,,,,,,,,,,,,,,,,,,,,,,,,,,,,,,,,,,,,,,,,,,,,,,,,,,,,,,,,
1607645968.029614,83.000000,0.000000,4207.051270,4204.230957,4204.743652,4185.256348,4205.512695,4201.666504,4199.358887,4217.051270,4206.025879,4213.461426,4203.846191,4207.692383,4205.384766,4214.358887,3482.000000,4.000000,,,,0.000000,4.000000,4.000000,4.000000,4.000000,4.000000,4.000000,4.000000,4.000000,4.000000,4.000000,4.000000,4.000000,4.000000,4.000000,100.000000,,,,,,,,,,,,,,,,,,,,,,,,,,,,,,,,,,,,,,,,,,,,,,,,,,,,,,,,,,,,,,,,,,,,,,,,,,,,,,,,,,
1607645968.037411,84.000000,0.000000,4215.384766,4215.256348,4209.230957,4183.461426,4200.384766,4200.000000,4202.307617,4220.128418,4211.410156,4215.769043,4203.974121,4207.051270,4205.897461,4215.512695,3016.000000,4.000000,,,,0.000000,4.000000,4.000000,4.000000,4.000000,4.000000,4.000000,4.000000,4.000000,4.000000,4.000000,4.000000,4.000000,4.000000,4.000000,100.000000,21.000000,0.000000,0.572992,0.108704,-0.796814,0.157959,0.958999,-0.140139,-0.315435,-21.084917,-156.566727,-11.813535,,,,,,,,,,,,,,,,,,,,,,,,,,,,,,,,,,,,,,,,,,,,,,,,,,,,,,,,,,,,,,,,,,,,,,
1607645968.045207,85.000000,0.000000,4215.384766,4216.922852,4212.307617,4187.948730,4205.512695,4201.153809,4207.436035,4225.769043,4219.102539,4218.717773,4211.410156,4208.205078,4208.205078,4216.538574,1309.000000,4.000000,,,,0.000000,4.000000,4.000000,4.000000,4.000000,4.000000,4.000000,4.000000,4.000000,4.000000,4.000000,4.000000,4.000000,4.000000,4.000000,100.000000,,,,,,,,,,,,,,,,,,,,,,,,,,,,,,,,,,,,,,,,,,,,,,,,,,,,,,,,,,,,,,,,,,,,,,,,,,,,,,,,,,
1607645968.053003,86.000000,0.000000,4220.384766,4219.358887,4215.384766,4196.794922,4219.230957,4210.256348,4206.794922,4231.153809,4222.179688,4226.025879,4216.666504,4210.384766,4218.333496,4216.410156,3575.000000,4.000000,,,,0.000000,4.000000,4.000000,4.000000,4.000000,4.000000,4.000000,4.000000,4.000000,4.000000,4.000000,4.000000,4.000000,4.000000,4.000000,100.000000,,,,,,,,,,,,,,,,,,,,,,,,,,,,,,,,,,,,,,,,,,,,,,,,,,,,,,,,,,,,,,,,,,,,,,,,,,,,,,,,,,
1607645968.060800,87.000000,0.000000,4230.769043,4231.922852,4218.589844,4200.384766,4219.102539,4216.538574,4205.641113,4233.461426,4225.128418,4233.205078,4214.743652,4212.307617,4223.846191,4220.128418,3482.000000,4.000000,,,,0.000000,4.000000,4.000000,4.000000,4.000000,4.000000,4.000000,4.000000,4.000000,4.000000,4.000000,4.000000,4.000000,4.000000,4.000000,100.000000,,,,,,,,,,,,,,,,,,,,,,,,,,,,,,,,,,,,,,,,,,,,,,,,,,,,,,,,,,,,,,,,,,,,,,,,,,,,,,,,,,
1607645968.068596,88.000000,0.000000,4231.794922,4234.358887,4219.230957,4200.641113,4223.589844,4219.615234,4213.077148,4229.743652,4227.436035,4232.051270,4212.820313,4215.641113,4220.256348,4223.717773,3016.000000,4.000000,,,,0.000000,4.000000,4.000000,4.000000,4.000000,4.000000,4.000000,4.000000,4.000000,4.000000,4.000000,4.000000,4.000000,4.000000,4.000000,100.000000,22.000000,0.000000,0.573275,0.108276,-0.796753,0.157532,0.964858,-0.139651,-0.305669,-19.589533,-156.865799,-13.159381,,,,,,,,,,,,,,,,,,,,,,,,,,,,,,,,,,,,,,,,,,,,,,,,,,,,,,,,,,,,,,,,,,,,,,
1607645968.076392,89.000000,0.000000,4222.051270,4218.846191,4218.717773,4201.538574,4232.820313,4216.794922,4213.333496,4227.948730,4222.051270,4226.922852,4213.974121,4215.384766,4215.512695,4221.153809,1309.000000,4.000000,,,,0.000000,4.000000,4.000000,4.000000,4.000000,4.000000,4.000000,4.000000,4.000000,4.000000,4.000000,4.000000,4.000000,4.000000,4.000000,100.000000,,,,,,,,,,,,,,,,,,,,,,,,,,,,,,,,,,,,,,,,,,,,,,,,,,,,,,,,,,,,,,,,,,,,,,,,,,,,,,,,,,
1607645968.084189,90.000000,0.000000,4221.025879,4207.948730,4218.461426,4201.282227,4222.436035,4215.641113,4205.128418,4230.000000,4220.641113,4227.179688,4215.641113,4205.897461,4215.000000,4221.794922,3575.000000,4.000000,,,,0.000000,4.000000,4.000000,4.000000,4.000000,4.000000,4.000000,4.000000,4.000000,4.000000,4.000000,4.000000,4.000000,4.000000,4.000000,100.000000,,,,,,,,,,,,,4.239820,0.623159,0.320279,0.198086,0.082110,2.056350,0.595593,0.319709,0.346678,0.255997,1.268862,0.515234,0.255328,0.105285,0.111906,1.703404,0.466992,0.171158,0.086482,0.079144,1.291527,0.701149,0.225539,0.452043,0.148648,0.654769,0.568364,0.368546,0.177222,0.093123,0.126869,0.110364,0.093159,0.062891,0.058776,1.157814,0.415038,0.334943,0.156767,0.080808,1.747266,0.692671,0.370678,0.254209,0.145558,2.613544,0.980552,0.400897,0.275784,0.124986,2.961494,0.615363,0.348945,0.175423,0.074379,1.026060,0.473406,0.234914,0.089923,0.066865,8.583612,1.483935,0.483481,0.174804,0.086363,5.694781,0.842317,0.486378,0.154735,0.060054
1607645968.091885,91.000000,0.000000,4230.512695,4213.461426,4218.717773,4201.153809,4218.205078,4219.743652,4206.922852,4226.025879,4221.025879,4225.128418,4215.641113,4206.922852,4217.436035,4226.666504,3482.000000,4.000000,,,,0.000000,4.000000,4.000000,4.000000,4.000000,4.000000,4.000000,4.000000,4.000000,4.000000,4.000000,4.000000,4.000000,4.000000,4.000000,100.000000,,,,,,,,,,,,,,,,,,,,,,,,,,,,,,,,,,,,,,,,,,,,,,,,,,,,,,,,,,,,,,,,,,,,,,,,,,,,,,,,,,
1607645968.099681,92.000000,0.000000,4235.000000,4224.871582,4223.974121,4201.666504,4229.102539,4219.230957,4211.282227,4223.333496,4217.820313,4222.948730,4214.615234,4216.025879,4218.205078,4226.410156,3016.000000,4.000000,,,,0.000000,4.000000,4.000000,4.000000,4.000000,4.000000,4.000000,4.000000,4.000000,4.000000,4.000000,4.000000,4.000000,4.000000,4.000000,100.000000,23.000000,0.000000,0.574014,0.107300,-0.796570,0.156433,0.971206,-0.129397,-0.295903,-21.234455,-155.370407,-13.458457,,,,,,,,,,,,,,,,,,,,,,,,,,,,,,,,,,,,,,,,,,,,,,,,,,,,,,,,,,,,,,,,,,,,,,
1607645968.107477,93.000000,0.000000,4232.820313,4231.282227,4232.307617,4201.153809,4226.282227,4216.410156,4210.769043,4229.743652,4222.051270,4228.461426,4216.153809,4216.922852,4217.820313,4227.307617,1309.000000,4.000000,,,,0.000000,4.000000,4.000000,4.000000,4.000000,4.000000,4.000000,4.000000,4.000000,4.000000,4.000000,4.000000,4.000000,4.000000,4.000000,100.000000,,,,,,,,,,,,,,,,,,,,,,,,,,,,,,,,,,,,,,,,,,,,,,,,,,,,,,,,,,,,,,,,,,,,,,,,,,,,,,,,,,
1607645968.115274,94.000000,0.000000,4233.589844,4233.461426,4234.102539,4200.897461,4220.897461,4219.743652,4214.230957,4233.974121,4231.410156,4234.230957,4218.077148,4214.487305,4226.282227,4234.743652,3575.000000,4.000000,,,,0.000000,4.000000,4.000000,4.000000,4.000000,4.000000,4.000000,4.000000,4.000000,4.000000,4.000000,4.000000,4.000000,4.000000,4.000000,100.000000,,,,,,,,,,,,,,,,,,,,,,,,,,,,,,,,,,,,,,,,,,,,,,,,,,,,,,,,,,,,,,,,,,,,,,,,,,,,,,,,,,
1607645968.123070,95.000000,0.000000,4236.025879,4229.871582,4231.666504,4203.717773,4231.282227,4221.410156,4216.025879,4232.692383,4231.025879,4236.538574,4218.974121,4215.256348,4236.282227,4237.692383,3482.000000,4.000000,,,,0.000000,4.000000,4.000000,4.000000,4.000000,4.000000,4.000000,4.000000,4.000000,4.000000,4.000000,4.000000,4.000000,4.000000,4.000000,100.000000,,,,,,,,,,,,,,,,,,,,,,,,,,,,,,,,,,,,,,,,,,,,,,,,,,,,,,,,,,,,,,,,,,,,,,,,,,,,,,,,,,
1607645968.130866,96.000000,0.000000,4232.820313,4221.282227,4231.153809,4205.128418,4236.666504,4219.102539,4211.794922,4232.948730,4225.000000,4236.153809,4218.589844,4216.666504,4231.282227,4232.820313,3016.000000,4.000000,,,,0.000000,4.000000,4.000000,4.000000,4.000000,4.000000,4.000000,4.000000,4.000000,4.000000,4.000000,4.000000,4.000000,4.000000,4.000000,100.000000,24.000000,0.000000,0.574695,0.106262,-0.796326,0.155884,0.974136,-0.123537,-0.294438,-20.038147,-155.669495,-11.663997,,,,,,,,,,,,,,,,,,,,,,,,,,,,,,,,,,,,,,,,,,,,,,,,,,,,,,,,,,,,,,,,,,,,,,
1607645968.138663,97.000000,0.000000,4230.384766,4215.384766,4228.974121,4201.282227,4226.538574,4223.461426,4212.051270,4231.922852,4227.307617,4232.307617,4215.897461,4215.000000,4220.384766,4229.487305,1309.000000,4.000000,,,,0.000000,4.000000,4.000000,4.000000,4.000000,4.000000,4.000000,4.000000,4.000000,4.000000,4.000000,4.000000,4.000000,4.000000,4.000000,100.000000,,,,,,,,,,,,,,,,,,,,,,,,,,,,,,,,,,,,,,,,,,,,,,,,,,,,,,,,,,,,,,,,,,,,,,,,,,,,,,,,,,
1607645968.146459,98.000000,0.000000,4230.641113,4218.974121,4227.948730,4199.102539,4224.487305,4231.410156,4216.538574,4230.256348,4230.384766,4229.615234,4215.897461,4209.871582,4217.307617,4229.743652,3575.000000,4.000000,,,,0.000000,4.000000,4.000000,4.000000,4.000000,4.000000,4.000000,4.000000,4.000000,4.000000,4.000000,4.000000,4.000000,4.000000,4.000000,100.000000,,,,,,,,,,,,,,,,,,,,,,,,,,,,,,,,,,,,,,,,,,,,,,,,,,,,,,,,,,,,,,,,,,,,,,,,,,,,,,,,,,
1607645968.154255,99.000000,0.000000,4226.666504,4224.743652,4226.666504,4200.512695,4230.769043,4229.102539,4215.641113,4232.307617,4230.384766,4228.589844,4217.820313,4207.820313,4217.179688,4229.230957,3482.000000,4.000000,,,,0.000000,4.000000,4.000000,4.000000,4.000000,4.000000,4.000000,4.000000,4.000000,4.000000,4.000000,4.000000,4.000000,4.000000,4.000000,100.000000,,,,,,,,,,,,,,,,,,,,,,,,,,,,,,,,,,,,,,,,,,,,,,,,,,,,,,,,,,,,,,,,,,,,,,,,,,,,,,,,,,
1607645968.162051,100.000000,0.000000,4218.461426,4219.487305,4219.871582,4201.153809,4226.538574,4223.846191,4214.102539,4231.666504,4232.179688,4228.846191,4217.179688,4210.000000,4218.461426,4226.922852,3016.000000,4.000000,,,,0.000000,4.000000,4.000000,4.000000,4.000000,4.000000,4.000000,4.000000,4.000000,4.000000,4.000000,4.000000,4.000000,4.000000,4.000000,100.000000,25.000000,0.000000,0.575354,0.105042,-0.796143,0.155212,0.989761,-0.123049,-0.297856,-20.636301,-156.566727,-12.262150,,,,,,,,,,,,,,,,,,,,,,,,,,,,,,,,,,,,,,,,,,,,,,,,,,,,,,,,,,,,,,,,,,,,,,
1607645968.169748,101.000000,0.000000,4216.282227,4216.153809,4216.538574,4200.256348,4217.820313,4224.230957,4213.205078,4230.641113,4230.769043,4229.230957,4215.512695,4210.512695,4220.641113,4226.794922,1309.000000,4.000000,,,,0.000000,4.000000,4.000000,4.000000,4.000000,4.000000,4.000000,4.000000,4.000000,4.000000,4.000000,4.000000,4.000000,4.000000,4.000000,100.000000,,,,,,,,,,,,,,,,,,,,,,,,,,,,,,,,,,,,,,,,,,,,,,,,,,,,,,,,,,,,,,,,,,,,,,,,,,,,,,,,,,
1607645968.177544,102.000000,0.000000,4215.641113,4221.025879,4218.333496,4196.282227,4216.794922,4221.153809,4212.820313,4230.256348,4221.794922,4223.589844,4214.615234,4208.077148,4217.179688,4222.948730,3575.000000,4.000000,,,,0.000000,4.000000,4.000000,4.000000,4.000000,4.000000,4.000000,4.000000,4.000000,4.000000,4.000000,4.000000,4.000000,4.000000,4.000000,100.000000,,,,,,,,,,,,,,,,,,,,,,,,,,,,,,,,,,,,,,,,,,,,,,,,,,,,,,,,,,,,,,,,,,,,,,,,,,,,,,,,,,
1607645968.185340,103.000000,0.000000,4215.769043,4212.436035,4217.948730,4194.358887,4217.436035,4218.205078,4215.256348,4231.794922,4222.307617,4222.820313,4216.666504,4210.769043,4217.436035,4216.666504,3482.000000,4.000000,,,,0.000000,4.000000,4.000000,4.000000,4.000000,4.000000,4.000000,4.000000,4.000000,4.000000,4.000000,4.000000,4.000000,4.000000,4.000000,100.000000,,,,,,,,,,,,,,,,,,,,,,,,,,,,,,,,,,,,,,,,,,,,,,,,,,,,,,,,,,,,,,,,,,,,,,,,,,,,,,,,,,
1607645968.193137,104.000000,0.000000,4220.128418,4200.897461,4217.051270,4198.589844,4215.128418,4220.769043,4213.077148,4235.000000,4232.436035,4232.820313,4218.974121,4211.538574,4219.743652,4218.589844,3016.000000,4.000000,,,,0.000000,4.000000,4.000000,4.000000,4.000000,4.000000,4.000000,4.000000,4.000000,4.000000,4.000000,4.000000,4.000000,4.000000,4.000000,100.000000,26.000000,0.000000,0.575878,0.104004,-0.795959,0.154907,0.990250,-0.133791,-0.292973,-20.935377,-154.921799,-13.159381,,,,,,,,,,,,,,,,,,,,,,,,,,,,,,,,,,,,,,,,,,,,,,,,,,,,,,,,,,,,,,,,,,,,,,
1607645968.200933,105.000000,0.000000,4220.641113,4209.102539,4218.589844,4200.897461,4216.666504,4216.153809,4205.000000,4232.051270,4230.128418,4233.589844,4215.897461,4207.948730,4218.077148,4220.641113,1309.000000,4.000000,,,,0.000000,4.000000,4.000000,4.000000,4.000000,4.000000,4.000000,4.000000,4.000000,4.000000,4.000000,4.000000,4.000000,4.000000,4.000000,100.000000,,,,,,,,,,,,,,,,,,,,,,,,,,,,,,,,,,,,,,,,,,,,,,,,,,,,,,,,,,,,,,,,,,,,,,,,,,,,,,,,,,
1607645968.208729,106.000000,0.000000,4217.948730,4223.846191,4219.102539,4198.461426,4217.820313,4212.179688,4203.974121,4230.769043,4224.487305,4230.128418,4215.384766,4209.358887,4226.410156,4221.666504,3575.000000,4.000000,,,,0.000000,4.000000,4.000000,4.000000,4.000000,4.000000,4.000000,4.000000,4.000000,4.000000,4.000000,4.000000,4.000000,4.000000,4.000000,100.000000,,,,,,,,,,,,,3.008552,0.558155,0.336633,0.225758,0.083207,1.535525,0.544227,0.385518,0.398457,0.241669,1.128519,0.452883,0.316222,0.100447,0.100317,1.664130,0.485021,0.200346,0.084196,0.076463,1.078651,0.587046,0.220052,0.416425,0.141685,0.607950,0.457024,0.308676,0.188013,0.089655,0.156289,0.101096,0.113735,0.075260,0.055526,1.232618,0.366769,0.371903,0.147861,0.073055,1.952387,0.640130,0.432192,0.265537,0.139277,2.593930,0.891615,0.523205,0.288208,0.126839,2.451207,0.563248,0.381706,0.182053,0.069744,0.667401,0.208681,0.201295,0.063934,0.063312,6.143274,1.373640,0.514295,0.193208,0.084505,3.922822,0.767699,0.478660,0.165467,0.059512
1607645968.216526,107.000000,0.000000,4217.307617,4223.974121,4218.077148,4197.307617,4217.692383,4218.205078,4206.666504,4229.487305,4225.769043,4233.589844,4218.846191,4213.461426,4233.717773,4224.615234,3482.000000,4.000000,,,,0.000000,4.000000,4.000000,4.000000,4.000000,4.000000,4.000000,4.000000,4.000000,4.000000,4.000000,4.000000,4.000000,4.000000,4.000000,100.000000,,,,,,,,,,,,,,,,,,,,,,,,,,,,,,,,,,,,,,,,,,,,,,,,,,,,,,,,,,,,,,,,,,,,,,,,,,,,,,,,,,
1607645968.224322,108.000000,0.000000,4214.615234,4211.410156,4217.179688,4197.563965,4213.077148,4213.205078,4201.538574,4221.794922,4220.769043,4226.922852,4215.384766,4211.794922,4223.717773,4219.743652,3016.000000,4.000000,,,,0.000000,4.000000,4.000000,4.000000,4.000000,4.000000,4.000000,4.000000,4.000000,4.000000,4.000000,4.000000,4.000000,4.000000,4.000000,100.000000,27.000000,0.000000,0.576241,0.103210,-0.795776,0.155029,0.973648,-0.134279,-0.291020,-20.187687,-156.267639,-13.009842,,,,,,,,,,,,,,,,,,,,,,,,,,,,,,,,,,,,,,,,,,,,,,,,,,,,,,,,,,,,,,,,,,,,,,
1607645968.232118,109.000000,0.000000,4215.512695,4206.410156,4217.051270,4197.179688,4209.230957,4203.846191,4200.256348,4222.051270,4214.871582,4222.051270,4214.615234,4205.512695,4223.846191,4216.282227,1309.000000,4.000000,,,,0.000000,4.000000,4.000000,4.000000,4.000000,4.000000,4.000000,4.000000,4.000000,4.000000,4.000000,4.000000,4.000000,4.000000,4.000000,100.000000,,,,,,,,,,,,,,,,,,,,,,,,,,,,,,,,,,,,,,,,,,,,,,,,,,,,,,,,,,,,,,,,,,,,,,,,,,,,,,,,,,
1607645968.239914,110.000000,0.000000,4221.025879,4210.897461,4218.333496,4195.512695,4213.077148,4210.897461,4205.769043,4229.358887,4216.666504,4232.436035,4219.743652,4208.717773,4233.717773,4219.871582,3575.000000,4.000000,,,,0.000000,4.000000,4.000000,4.000000,4.000000,4.000000,4.000000,4.000000,4.000000,4.000000,4.000000,4.000000,4.000000,4.000000,4.000000,100.000000,,,,,,,,,,,,,,,,,,,,,,,,,,,,,,,,,,,,,,,,,,,,,,,,,,,,,,,,,,,,,,,,,,,,,,,,,,,,,,,,,,
1607645968.247611,111.000000,0.000000,4219.487305,4216.922852,4218.333496,4193.846191,4216.282227,4217.692383,4205.897461,4228.589844,4220.128418,4232.820313,4219.743652,4214.358887,4226.410156,4222.051270,3482.000000,4.000000,,,,0.000000,4.000000,4.000000,4.000000,4.000000,4.000000,4.000000,4.000000,4.000000,4.000000,4.000000,4.000000,4.000000,4.000000,4.000000,100.000000,,,,,,,,,,,,,,,,,,,,,,,,,,,,,,,,,,,,,,,,,,,,,,,,,,,,,,,,,,,,,,,,,,,,,,,,,,,,,,,,,,
1607645968.255407,112.000000,0.000000,4217.307617,4226.538574,4218.333496,4197.948730,4216.922852,4213.461426,4205.512695,4227.436035,4224.230957,4229.743652,4220.256348,4213.077148,4225.384766,4227.436035,3016.000000,4.000000,,,,0.000000,4.000000,4.000000,4.000000,4.000000,4.000000,4.000000,4.000000,4.000000,4.000000,4.000000,4.000000,4.000000,4.000000,4.000000,100.000000,28.000000,0.000000,0.576349,0.102905,-0.795654,0.155457,0.976089,-0.145022,-0.310552,-20.187687,-154.772263,-11.813535,,,,,,,,,,,,,,,,,,,,,,,,,,,,,,,,,,,,,,,,,,,,,,,,,,,,,,,,,,,,,,,,,,,,,,
1607645968.263203,113.000000,0.000000,4222.948730,4230.256348,4220.000000,4203.461426,4217.820313,4214.102539,4209.102539,4233.589844,4224.743652,4236.538574,4224.487305,4212.948730,4237.948730,4232.563965,1309.000000,4.000000,,,,0.000000,4.000000,4.000000,4.000000,4.000000,4.000000,4.000000,4.000000,4.000000,4.000000,4.000000,4.000000,4.000000,4.000000,4.000000,100.000000,,,,,,,,,,,,,,,,,,,,,,,,,,,,,,,,,,,,,,,,,,,,,,,,,,,,,,,,,,,,,,,,,,,,,,,,,,,,,,,,,,
1607645968.271000,114.000000,0.000000,4217.948730,4211.538574,4216.282227,4198.846191,4213.589844,4218.077148,4210.512695,4228.589844,4214.102539,4223.461426,4216.153809,4213.333496,4222.563965,4218.974121,3575.000000,4.000000,,,,0.000000,4.000000,4.000000,4.000000,4.000000,4.000000,4.000000,4.000000,4.000000,4.000000,4.000000,4.000000,4.000000,4.000000,4.000000,100.000000,,,,,,,,,,,,,,,,,,,,,,,,,,,,,,,,,,,,,,,,,,,,,,,,,,,,,,,,,,,,,,,,,,,,,,,,,,,,,,,,,,
1607645968.278796,115.000000,0.000000,4202.948730,4193.589844,4205.897461,4188.974121,4209.871582,4215.128418,4207.436035,4217.051270,4204.871582,4198.077148,4201.922852,4209.871582,4196.794922,4200.128418,3482.000000,4.000000,,,,0.000000,4.000000,4.000000,4.000000,4.000000,4.000000,4.000000,4.000000,4.000000,4.000000,4.000000,4.000000,4.000000,4.000000,4.000000,100.000000,,,,,,,,,,,,,,,,,,,,,,,,,,,,,,,,,,,,,,,,,,,,,,,,,,,,,,,,,,,,,,,,,,,,,,,,,,,,,,,,,,
1607645968.286592,116.000000,0.000000,4195.897461,4200.256348,4199.102539,4184.743652,4208.333496,4212.820313,4202.563965,4213.846191,4203.077148,4199.358887,4202.179688,4201.538574,4195.769043,4197.179688,3016.000000,4.000000,,,,0.000000,4.000000,4.000000,4.000000,4.000000,4.000000,4.000000,4.000000,4.000000,4.000000,4.000000,4.000000,4.000000,4.000000,4.000000,100.000000,29.000000,0.000000,0.576724,0.102112,-0.795532,0.155212,0.969741,-0.150393,-0.296880,-21.084917,-155.519958,-11.364920,,,,,,,,,,,,,,,,,,,,,,,,,,,,,,,,,,,,,,,,,,,,,,,,,,,,,,,,,,,,,,,,,,,,,,
1607645968.294389,117.000000,0.000000,4199.615234,4201.794922,4202.948730,4185.512695,4202.563965,4212.307617,4203.846191,4215.000000,4203.205078,4214.230957,4209.358887,4199.871582,4207.820313,4201.666504,1309.000000,4.000000,,,,0.000000,4.000000,4.000000,4.000000,4.000000,4.000000,4.000000,4.000000,4.000000,4.000000,4.000000,4.000000,4.000000,4.000000,4.000000,100.000000,,,,,,,,,,,,,,,,,,,,,,,,,,,,,,,,,,,,,,,,,,,,,,,,,,,,,,,,,,,,,,,,,,,,,,,,,,,,,,,,,,
1607645968.302185,118.000000,0.000000,4209.230957,4196.538574,4211.794922,4185.897461,4201.922852,4213.205078,4212.307617,4223.846191,4213.589844,4222.563965,4214.358887,4207.820313,4220.641113,4208.717773,3575.000000,4.000000,,,,0.000000,4.000000,4.000000,4.000000,4.000000,4.000000,4.000000,4.000000,4.000000,4.000000,4.000000,4.000000,4.000000,4.000000,4.000000,100.000000,,,,,,,,,,,,,,,,,,,,,,,,,,,,,,,,,,,,,,,,,,,,,,,,,,,,,,,,,,,,,,,,,,,,,,,,,,,,,,,,,,
1607645968.309881,119.000000,0.000000,4217.179688,4200.769043,4215.512695,4186.410156,4207.436035,4217.307617,4215.512695,4232.820313,4229.615234,4234.358887,4223.717773,4215.897461,4236.153809,4220.384766,3482.000000,4.000000,,,,0.000000,4.000000,4.000000,4.000000,4.000000,4.000000,4.000000,4.000000,4.000000,4.000000,4.000000,4.000000,4.000000,4.000000,4.000000,100.000000,,,,,,,,,,,,,,,,,,,,,,,,,,,,,,,,,,,,,,,,,,,,,,,,,,,,,,,,,,,,,,,,,,,,,,,,,,,,,,,,,,
1607645968.317678,120.000000,0.000000,4218.589844,4202.436035,4215.384766,4193.974121,4210.769043,4221.025879,4212.307617,4231.794922,4233.846191,4245.769043,4232.307617,4215.512695,4246.666504,4227.179688,3016.000000,4.000000,,,,0.000000,4.000000,4.000000,4.000000,4.000000,4.000000,4.000000,4.000000,4.000000,4.000000,4.000000,4.000000,4.000000,4.000000,4.000000,100.000000,30.000000,0.000000,0.577290,0.101074,-0.795349,0.154724,0.974136,-0.153323,-0.284672,-20.187687,-155.519958,-12.561227,,,,,,,,,,,,,,,,,,,,,,,,,,,,,,,,,,,,,,,,,,,,,,,,,,,,,,,,,,,,,,,,,,,,,,
1607645968.325474,121.000000,0.000000,4217.436035,4200.128418,4216.794922,4196.794922,4216.794922,4219.230957,4214.743652,4227.820313,4231.153809,4245.897461,4232.692383,4213.846191,4244.230957,4225.897461,1309.000000,4.000000,,,,0.000000,4.000000,4.000000,4.000000,4.000000,4.000000,4.000000,4.000000,4.000000,4.000000,4.000000,4.000000,4.000000,4.000000,4.000000,100.000000,,,,,,,,,,,,,,,,,,,,,,,,,,,,,,,,,,,,,,,,,,,,,,,,,,,,,,,,,,,,,,,,,,,,,,,,,,,,,,,,,,
1607645968.333270,122.000000,0.000000,4219.358887,4197.436035,4219.871582,4194.487305,4217.179688,4216.794922,4217.051270,4232.179688,4235.512695,4247.692383,4234.102539,4217.179688,4240.256348,4225.256348,3575.000000,4.000000,,,,0.000000,4.000000,4.000000,4.000000,4.000000,4.000000,4.000000,4.000000,4.000000,4.000000,4.000000,4.000000,4.000000,4.000000,4.000000,100.000000,,,,,,,,,,,,,2.078747,0.528227,0.379782,0.264993,0.087446,1.201665,0.555702,0.472621,0.458792,0.241796,1.025619,0.415283,0.396768,0.109690,0.094572,1.554451,0.525636,0.246085,0.088625,0.077339,0.972051,0.592882,0.236937,0.371714,0.140287,0.593173,0.414914,0.249368,0.195889,0.087426,0.193166,0.109829,0.141961,0.089800,0.053687,1.266930,0.381971,0.398192,0.136586,0.068285,2.087735,0.706443,0.502488,0.275834,0.133126,2.580582,0.880779,0.653426,0.294605,0.133294,2.063633,0.531067,0.401412,0.176489,0.074433,0.486392,0.088797,0.177809,0.052086,0.058897,4.139202,1.280287,0.599531,0.223756,0.090140,2.560714,0.716437,0.490426,0.187327,0.061258
1607645968.341066,123.000000,0.000000,4218.846191,4188.077148,4219.615234,4198.461426,4207.692383,4220.384766,4209.358887,4233.205078,4232.179688,4246.153809,4233.205078,4218.077148,4237.820313,4222.563965,3482.000000,4.000000,,,,0.000000,4.000000,4.000000,4.000000,4.000000,4.000000,4.000000,4.000000,4.000000,4.000000,4.000000,4.000000,4.000000,4.000000,4.000000,100.000000,,,,,,,,,,,,,,,,,,,,,,,,,,,,,,,,,,,,,,,,,,,,,,,,,,,,,,,,,,,,,,,,,,,,,,,,,,,,,,,,,,
1607645968.348863,124.000000,0.000000,4213.717773,4183.461426,4215.256348,4195.897461,4206.282227,4220.000000,4202.307617,4225.897461,4220.641113,4234.615234,4223.333496,4214.615234,4232.051270,4214.871582,3016.000000,4.000000,,,,0.000000,4.000000,4.000000,4.000000,4.000000,4.000000,4.000000,4.000000,4.000000,4.000000,4.000000,4.000000,4.000000,4.000000,4.000000,100.000000,31.000000,0.000000,0.577744,0.100281,-0.795227,0.154175,0.970230,-0.141115,-0.273930,-20.486763,-156.417175,-12.411689,,,,,,,,,,,,,,,,,,,,,,,,,,,,,,,,,,,,,,,,,,,,,,,,,,,,,,,,,,,,,,,,,,,,,,
1607645968.356659,125.000000,0.000000,4213.461426,4197.179688,4215.128418,4185.128418,4207.179688,4210.641113,4207.563965,4227.820313,4227.179688,4233.846191,4222.051270,4214.230957,4232.563965,4213.205078,1309.000000,4.000000,,,,0.000000,4.000000,4.000000,4.000000,4.000000,4.000000,4.000000,4.000000,4.000000,4.000000,4.000000,4.000000,4.000000,4.000000,4.000000,100.000000,,,,,,,,,,,,,,,,,,,,,,,,,,,,,,,,,,,,,,,,,,,,,,,,,,,,,,,,,,,,,,,,,,,,,,,,,,,,,,,,,,
1607645968.364455,126.000000,0.000000,4214.358887,4204.358887,4217.820313,4185.897461,4202.948730,4209.743652,4212.820313,4233.974121,4238.717773,4245.641113,4231.282227,4216.153809,4239.487305,4218.717773,3575.000000,4.000000,,,,0.000000,4.000000,4.000000,4.000000,4.000000,4.000000,4.000000,4.000000,4.000000,4.000000,4.000000,4.000000,4.000000,4.000000,4.000000,100.000000,,,,,,,,,,,,,,,,,,,,,,,,,,,,,,,,,,,,,,,,,,,,,,,,,,,,,,,,,,,,,,,,,,,,,,,,,,,,,,,,,,
1607645968.372252,127.000000,0.000000,4212.692383,4195.897461,4216.922852,4193.333496,4207.820313,4212.692383,4211.410156,4232.436035,4233.846191,4246.410156,4233.077148,4215.000000,4238.333496,4217.307617,58.000000,4.000000,,,,0.000000,4.000000,4.000000,4.000000,4.000000,4.000000,4.000000,4.000000,4.000000,4.000000,4.000000,4.000000,4.000000,4.000000,4.000000,100.000000,,,,,,,,,,,,,,,,,,,,,,,,,,,,,,,,,,,,,,,,,,,,,,,,,,,,,,,,,,,,,,,,,,,,,,,,,,,,,,,,,,
1607645968.380048,0.000000,0.000000,4212.436035,4195.384766,4215.769043,4192.179688,4214.615234,4210.384766,4212.307617,4230.512695,4230.512695,4239.358887,4227.948730,4212.692383,4233.846191,4215.256348,2934.000000,4.000000,,,,0.000000,4.000000,4.000000,4.000000,4.000000,4.000000,4.000000,4.000000,4.000000,4.000000,4.000000,4.000000,4.000000,4.000000,4.000000,100.000000,0.000000,0.000000,0.578643,0.098816,-0.794922,0.153320,0.974136,-0.139162,-0.289067,-20.935377,-155.370407,-12.710765,,,,,,,,,,,,,,,,,,,,,,,,,,,,,,,,,,,,,,,,,,,,,,,,,,,,,,,,,,,,,,,,,,,,,,
1607645968.387744,1.000000,0.000000,4216.025879,4196.538574,4219.487305,4195.128418,4211.282227,4213.589844,4215.128418,4233.461426,4237.179688,4244.871582,4227.051270,4214.102539,4242.820313,4221.666504,2254.000000,4.000000,,,,0.000000,4.000000,4.000000,4.000000,4.000000,4.000000,4.000000,4.000000,4.000000,4.000000,4.000000,4.000000,4.000000,4.000000,4.000000,100.000000,,,,,,,,,,,,,,,,,,,,,,,,,,,,,,,,,,,,,,,,,,,,,,,,,,,,,,,,,,,,,,,,,,,,,,,,,,,,,,,,,,
1607645968.395540,2.000000,0.000000,4219.358887,4195.641113,4221.794922,4205.384766,4211.922852,4219.487305,4213.846191,4234.871582,4238.589844,4251.666504,4231.153809,4215.256348,4252.436035,4223.589844,3466.000000,4.000000,,,,0.000000,4.000000,4.000000,4.000000,4.000000,4.000000,4.000000,4.000000,4.000000,4.000000,4.000000,4.000000,4.000000,4.000000,4.000000,100.000000,,,,,,,,,,,,,,,,,,,,,,,,,,,,,,,,,,,,,,,,,,,,,,,,,,,,,,,,,,,,,,,,,,,,,,,,,,,,,,,,,,
1607645968.403336,3.000000,0.000000,4218.461426,4202.051270,4219.743652,4201.794922,4211.794922,4215.256348,4211.794922,4234.743652,4238.077148,4247.051270,4228.717773,4214.358887,4244.102539,4220.641113,3409.000000,4.000000,,,,0.000000,4.000000,4.000000,4.000000,4.000000,4.000000,4.000000,4.000000,4.000000,4.000000,4.000000,4.000000,4.000000,4.000000,4.000000,100.000000,,,,,,,,,,,,,,,,,,,,,,,,,,,,,,,,,,,,,,,,,,,,,,,,,,,,,,,,,,,,,,,,,,,,,,,,,,,,,,,,,,
1607645968.411132,4.000000,0.000000,4216.410156,4208.846191,4217.948730,4190.128418,4204.615234,4211.153809,4210.256348,4235.384766,4237.692383,4242.948730,4222.436035,4211.922852,4235.000000,4219.230957,3635.000000,4.000000,,,,0.000000,4.000000,4.000000,4.000000,4.000000,4.000000,4.000000,4.000000,4.000000,4.000000,4.000000,4.000000,4.000000,4.000000,4.000000,100.000000,1.000000,0.000000,0.579708,0.096802,-0.794617,0.152161,0.981949,-0.140627,-0.280278,-21.084917,-156.566727,-11.065843,,,,,,,,,,,,,,,,,,,,,,,,,,,,,,,,,,,,,,,,,,,,,,,,,,,,,,,,,,,,,,,,,,,,,,
1607645968.418928,5.000000,0.000000,4215.256348,4200.128418,4217.948730,4191.666504,4208.846191,4215.256348,4211.794922,4235.641113,4233.717773,4244.358887,4224.230957,4211.153809,4239.487305,4218.461426,3321.000000,4.000000,,,,0.000000,4.000000,4.000000,4.000000,4.000000,4.000000,4.000000,4.000000,4.000000,4.000000,4.000000,4.000000,4.000000,4.000000,4.000000,100.000000,,,,,,,,,,,,,,,,,,,,,,,,,,,,,,,,,,,,,,,,,,,,,,,,,,,,,,,,,,,,,,,,,,,,,,,,,,,,,,,,,,
1607645968.426724,6.000000,0.000000,4214.871582,4186.794922,4219.487305,4200.384766,4213.974121,4216.666504,4213.077148,4235.384766,4233.205078,4241.538574,4227.436035,4214.102539,4240.769043,4218.846191,2003.000000,4.000000,,,,0.000000,4.000000,4.000000,4.000000,4.000000,4.000000,4.000000,4.000000,4.000000,4.000000,4.000000,4.000000,4.000000,4.000000,4.000000,100.000000,,,,,,,,,,,,,,,,,,,,,,,,,,,,,,,,,,,,,,,,,,,,,,,,,,,,,,,,,,,,,,,,,,,,,,,,,,,,,,,,,,
1607645968.434420,7.000000,0.000000,4209.615234,4192.179688,4219.358887,4194.615234,4210.000000,4216.538574,4207.436035,4233.974121,4232.820313,4233.461426,4221.410156,4215.641113,4234.743652,4219.487305,3113.000000,4.000000,,,,0.000000,4.000000,4.000000,4.000000,4.000000,4.000000,4.000000,4.000000,4.000000,4.000000,4.000000,4.000000,4.000000,4.000000,4.000000,100.000000,,,,,,,,,,,,,,,,,,,,,,,,,,,,,,,,,,,,,,,,,,,,,,,,,,,,,,,,,,,,,,,,,,,,,,,,,,,,,,,,,,
1607645968.442116,8.000000,0.000000,4206.410156,4203.717773,4217.051270,4183.974121,4211.153809,4213.846191,4204.358887,4232.179688,4227.179688,4231.794922,4220.384766,4214.487305,4231.794922,4216.666504,3465.000000,4.000000,,,,0.000000,4.000000,4.000000,4.000000,4.000000,4.000000,4.000000,4.000000,4.000000,4.000000,4.000000,4.000000,4.000000,4.000000,4.000000,100.000000,2.000000,0.000000,0.579983,0.096558,-0.794434,0.152222,0.998062,-0.149905,-0.281743,-21.234455,-155.370407,-13.159381,,,,,,,,,,,,,,,,,,,,,,,,,,,,,,,,,,,,,,,,,,,,,,,,,,,,,,,,,,,,,,,,,,,,,,
1607645968.449912,9.000000,0.000000,4212.051270,4200.769043,4220.769043,4189.871582,4216.025879,4210.512695,4207.436035,4233.077148,4227.436035,4233.717773,4228.717773,4213.717773,4232.692383,4220.128418,3630.000000,4.000000,,,,0.000000,4.000000,4.000000,4.000000,4.000000,4.000000,4.000000,4.000000,4.000000,4.000000,4.000000,4.000000,4.000000,4.000000,4.000000,100.000000,,,,,,,,,,,,,,,,,,,,,,,,,,,,,,,,,,,,,,,,,,,,,,,,,,,,,,,,,,,,,,,,,,,,,,,,,,,,,,,,,,
1607645968.457708,10.000000,0.000000,4219.615234,4198.077148,4228.974121,4202.307617,4216.666504,4215.256348,4209.487305,4235.641113,4234.230957,4234.487305,4233.846191,4214.615234,4233.717773,4231.282227,3570.000000,4.000000,,,,0.000000,4.000000,4.000000,4.000000,4.000000,4.000000,4.000000,4.000000,4.000000,4.000000,4.000000,4.000000,4.000000,4.000000,4.000000,100.000000,,,,,,,,,,,,,1.593614,0.546055,0.441599,0.302500,0.094971,1.073610,0.633064,0.574930,0.506637,0.253385,0.959752,0.411981,0.483575,0.129347,0.096881,1.384307,0.580742,0.297521,0.096962,0.081308,0.964945,0.698724,0.275086,0.316368,0.146431,0.598454,0.444382,0.202396,0.198828,0.087101,0.228485,0.137270,0.172725,0.102328,0.053387,1.229391,0.469895,0.417438,0.125450,0.066176,2.095311,0.864329,0.578718,0.285228,0.129101,2.511022,0.950095,0.776048,0.297610,0.141944,1.850876,0.527697,0.406076,0.163552,0.085959,0.392447,0.057995,0.159306,0.049019,0.053446,2.891808,1.241533,0.739785,0.256504,0.100643,1.792968,0.704928,0.514859,0.212886,0.064361
1607645968.465504,11.000000,0.000000,4226.666504,4212.436035,4231.538574,4203.461426,4218.589844,4222.051270,4213.205078,4235.384766,4234.230957,4239.487305,4240.641113,4215.641113,4240.641113,4235.769043,3482.000000,4.000000,,,,0.000000,4.000000,4.000000,4.000000,4.000000,4.000000,4.000000,4.000000,4.000000,4.000000,4.000000,4.000000,4.000000,4.000000,4.000000,100.000000,,,,,,,,,,,,,,,,,,,,,,,,,,,,,,,,,,,,,,,,,,,,,,,,,,,,,,,,,,,,,,,,,,,,,,,,,,,,,,,,,,
1607645968.473201,12.000000,0.000000,4229.230957,4215.256348,4228.846191,4194.358887,4215.384766,4220.000000,4216.666504,4234.487305,4231.282227,4241.538574,4248.974121,4215.641113,4242.948730,4233.333496,3014.000000,4.000000,,,,0.000000,4.000000,4.000000,4.000000,4.000000,4.000000,4.000000,4.000000,4.000000,4.000000,4.000000,4.000000,4.000000,4.000000,4.000000,100.000000,3.000000,0.000000,0.579969,0.096619,-0.794495,0.151917,0.983413,-0.155764,-0.269535,-19.888609,-155.819031,-12.561227,,,,,,,,,,,,,,,,,,,,,,,,,,,,,,,,,,,,,,,,,,,,,,,,,,,,,,,,,,,,,,,,,,,,,,
1607645968.480997,13.000000,0.000000,4227.051270,4201.025879,4227.820313,4192.948730,4211.666504,4217.179688,4209.743652,4235.897461,4233.589844,4238.846191,4250.384766,4217.051270,4241.794922,4236.282227,1306.000000,4.000000,,,,0.000000,4.000000,4.000000,4.000000,4.000000,4.000000,4.000000,4.000000,4.000000,4.000000,4.000000,4.000000,4.000000,4.000000,4.000000,100.000000,,,,,,,,,,,,,,,,,,,,,,,,,,,,,,,,,,,,,,,,,,,,,,,,,,,,,,,,,,,,,,,,,,,,,,,,,,,,,,,,,,
1607645968.488793,14.000000,0.000000,4219.230957,4200.000000,4224.358887,4198.077148,4213.205078,4215.256348,4201.153809,4229.743652,4231.025879,4232.948730,4244.871582,4216.794922,4242.051270,4237.436035,3570.000000,4.000000,,,,0.000000,4.000000,4.000000,4.000000,4.000000,4.000000,4.000000,4.000000,4.000000,4.000000,4.000000,4.000000,4.000000,4.000000,4.000000,100.000000,,,,,,,,,,,,,,,,,,,,,,,,,,,,,,,,,,,,,,,,,,,,,,,,,,,,,,,,,,,,,,,,,,,,,,,,,,,,,,,,,,
1607645968.496590,15.000000,0.000000,4205.769043,4200.256348,4215.128418,4188.333496,4208.589844,4207.051270,4200.384766,4217.820313,4214.743652,4214.358887,4235.641113,4209.230957,4223.205078,4224.487305,3482.000000,4.000000,,,,0.000000,4.000000,4.000000,4.000000,4.000000,4.000000,4.000000,4.000000,4.000000,4.000000,4.000000,4.000000,4.000000,4.000000,4.000000,100.000000,,,,,,,,,,,,,,,,,,,,,,,,,,,,,,,,,,,,,,,,,,,,,,,,,,,,,,,,,,,,,,,,,,,,,,,,,,,,,,,,,,
1607645968.504386,16.000000,0.000000,4193.974121,4189.871582,4204.615234,4172.692383,4198.077148,4197.820313,4201.025879,4211.282227,4202.563965,4200.641113,4228.846191,4201.025879,4203.333496,4210.897461,0.000000,4.000000,,,,0.000000,4.000000,4.000000,4.000000,4.000000,4.000000,4.000000,4.000000,4.000000,4.000000,4.000000,4.000000,4.000000,4.000000,4.000000,100.000000,4.000000,0.000000,0.579680,0.097351,-0.794617,0.151917,0.978042,-0.143557,-0.286137,-20.187687,-157.463943,-12.262150,,,,,,,,,,,,,,,,,,,,,,,,,,,,,,,,,,,,,,,,,,,,,,,,,,,,,,,,,,,,,,,,,,,,,,
1607645968.512182,17.000000,0.000000,4188.717773,4178.077148,4191.025879,4165.897461,4183.461426,4189.358887,4194.615234,4203.846191,4198.461426,4198.333496,4220.000000,4198.846191,4199.871582,4203.717773,0.000000,4.000000,,,,0.000000,4.000000,4.000000,4.000000,4.000000,4.000000,4.000000,4.000000,4.000000,4.000000,4.000000,4.000000,4.000000,4.000000,4.000000,100.000000,,,,,,,,,,,,,,,,,,,,,,,,,,,,,,,,,,,,,,,,,,,,,,,,,,,,,,,,,,,,,,,,,,,,,,,,,,,,,,,,,,
1607645968.519979,18.000000,0.000000,4179.102539,4165.641113,4180.128418,4160.512695,4167.692383,4180.897461,4186.410156,4194.358887,4190.641113,4187.948730,4211.666504,4198.717773,4191.025879,4193.717773,0.000000,4.000000,,,,0.000000,4.000000,4.000000,4.000000,4.000000,4.000000,4.000000,4.000000,4.000000,4.000000,4.000000,4.000000,4.000000,4.000000,4.000000,100.000000,,,,,,,,,,,,,,,,,,,,,,,,,,,,,,,,,,,,,,,,,,,,,,,,,,,,,,,,,,,,,,,,,,,,,,,,,,,,,,,,,,
1607645968.527775,19.000000,0.000000,4170.897461,4160.512695,4182.948730,4153.205078,4163.461426,4181.153809,4189.871582,4197.436035,4189.615234,4184.358887,4212.948730,4198.974121,4182.307617,4189.743652,0.000000,4.000000,,,,0.000000,4.000000,4.000000,4.000000,4.000000,4.000000,4.000000,4.000000,4.000000,4.000000,4.000000,4.000000,4.000000,4.000000,4.000000,100.000000,,,,,,,,,,,,,,,,,,,,,,,,,,,,,,,,,,,,,,,,,,,,,,,,,,,,,,,,,,,,,,,,,,,,,,,,,,,,,,,,,,
1607645968.535571,20.000000,0.000000,4179.102539,4162.820313,4187.692383,4154.615234,4166.666504,4185.128418,4196.794922,4202.179688,4195.384766,4195.384766,4215.128418,4199.102539,4191.794922,4195.641113,0.000000,4.000000,,,,0.000000,4.000000,4.000000,4.000000,4.000000,4.000000,4.000000,4.000000,4.000000,4.000000,4.000000,4.000000,4.000000,4.000000,4.000000,100.000000,5.000000,0.000000,0.579584,0.097778,-0.794739,0.151367,0.966323,-0.151369,-0.289555,-20.486763,-156.118103,-12.411689,,,,,,,,,,,,,,,,,,,,,,,,,,,,,,,,,,,,,,,,,,,,,,,,,,,,,,,,,,,,,,,,,,,,,,
1607645968.543268,21.000000,0.000000,4183.461426,4158.589844,4184.615234,4160.384766,4167.307617,4183.846191,4197.051270,4197.820313,4194.871582,4196.538574,4210.897461,4197.692383,4199.743652,4196.794922,0.000000,4.000000,,,,0.000000,4.000000,4.000000,4.000000,4.000000,4.000000,4.000000,4.000000,4.000000,4.000000,4.000000,4.000000,4.000000,4.000000,4.000000,100.000000,,,,,,,,,,,,,,,,,,,,,,,,,,,,,,,,,,,,,,,,,,,,,,,,,,,,,,,,,,,,,,,,,,,,,,,,,,,,,,,,,,
1607645968.551064,22.000000,0.000000,4184.358887,4157.948730,4190.384766,4168.717773,4173.717773,4189.487305,4198.205078,4203.974121,4198.461426,4199.358887,4217.948730,4200.128418,4201.666504,4200.512695,0.000000,4.000000,,,,0.000000,4.000000,4.000000,4.000000,4.000000,4.000000,4.000000,4.000000,4.000000,4.000000,4.000000,4.000000,4.000000,4.000000,4.000000,100.000000,,,,,,,,,,,,,,,,,,,,,,,,,,,,,,,,,,,,,,,,,,,,,,,,,,,,,,,,,,,,,,,,,,,,,,,,,,,,,,,,,,
1607645968.558860,23.000000,0.000000,4194.743652,4174.230957,4203.461426,4176.794922,4184.615234,4201.282227,4203.205078,4218.974121,4217.179688,4218.205078,4233.333496,4202.692383,4214.230957,4214.487305,0.000000,4.000000,,,,0.000000,4.000000,4.000000,4.000000,4.000000,4.000000,4.000000,4.000000,4.000000,4.000000,4.000000,4.000000,4.000000,4.000000,4.000000,100.000000,,,,,,,,,,,,,,,,,,,,,,,,,,,,,,,,,,,,,,,,,,,,,,,,,,,,,,,,,,,,,,,,,,,,,,,,,,,,,,,,,,
1607645968.566656,24.000000,0.000000,4203.461426,4187.948730,4205.641113,4178.974121,4193.077148,4203.077148,4204.102539,4221.282227,4229.615234,4228.974121,4237.179688,4205.256348,4227.051270,4224.102539,0.000000,4.000000,,,,0.000000,4.000000,4.000000,4.000000,4.000000,4.000000,4.000000,4.000000,4.000000,4.000000,4.000000,4.000000,4.000000,4.000000,4.000000,100.000000,6.000000,0.000000,0.579586,0.098022,-0.794800,0.150879,0.977554,-0.147951,-0.286625,-20.636301,-155.819031,-12.262150,,,,,,,,,,,,,,,,,,,,,,,,,,,,,,,,,,,,,,,,,,,,,,,,,,,,,,,,,,,,,,,,,,,,,,
1607645968.574453,25.000000,0.000000,4203.589844,4191.666504,4201.794922,4179.358887,4198.205078,4202.307617,4202.820313,4216.153809,4226.153809,4229.743652,4234.487305,4209.743652,4229.615234,4223.589844,0.000000,4.000000,,,,0.000000,4.000000,4.000000,4.000000,4.000000,4.000000,4.000000,4.000000,4.000000,4.000000,4.000000,4.000000,4.000000,4.000000,4.000000,100.000000,,,,,,,,,,,,,,,,,,,,,,,,,,,,,,,,,,,,,,,,,,,,,,,,,,,,,,,,,,,,,,,,,,,,,,,,,,,,,,,,,,
1607645968.582249,26.000000,0.000000,4202.436035,4189.102539,4201.794922,4176.282227,4191.282227,4205.000000,4201.666504,4217.948730,4222.179688,4230.000000,4231.666504,4207.436035,4226.410156,4220.000000,0.000000,4.000000,,,,0.000000,4.000000,4.000000,4.000000,4.000000,4.000000,4.000000,4.000000,4.000000,4.000000,4.000000,4.000000,4.000000,4.000000,4.000000,100.000000,,,,,,,,,,,,,1.474214,0.598852,0.510968,0.324743,0.104642,1.070680,0.744303,0.678867,0.534221,0.272504,0.919990,0.436928,0.562559,0.151495,0.105523,1.175072,0.626895,0.342555,0.105297,0.086203,1.013271,0.836734,0.324485,0.257202,0.159398,0.617284,0.518304,0.175408,0.196008,0.088620,0.260604,0.175084,0.199930,0.108141,0.054154,1.129290,0.597206,0.434232,0.115991,0.066186,1.974140,1.047073,0.652200,0.294563,0.127918,2.350921,1.079061,0.882277,0.301664,0.150576,1.760649,0.547379,0.403541,0.149086,0.099904,0.327192,0.058976,0.141932,0.049291,0.048075,2.309824,1.271607,0.922511,0.285907,0.114589,1.501770,0.731867,0.546395,0.236747,0.067990
1607645968.590045,27.000000,0.000000,4198.205078,4176.794922,4201.794922,4171.153809,4179.487305,4198.589844,4199.487305,4215.769043,4219.230957,4222.563965,4231.282227,4203.974121,4216.153809,4218.589844,0.000000,4.000000,,,,0.000000,4.000000,4.000000,4.000000,4.000000,4.000000,4.000000,4.000000,4.000000,4.000000,4.000000,4.000000,4.000000,4.000000,4.000000,100.000000,,,,,,,,,,,,,,,,,,,,,,,,,,,,,,,,,,,,,,,,,,,,,,,,,,,,,,,,,,,,,,,,,,,,,,,,,,,,,,,,,,
1607645968.597842,28.000000,0.000000,4190.897461,4167.179688,4195.384766,4172.692383,4181.794922,4187.692383,4199.615234,4204.615234,4213.333496,4216.153809,4232.179688,4204.487305,4212.051270,4218.461426,0.000000,4.000000,,,,0.000000,4.000000,4.000000,4.000000,4.000000,4.000000,4.000000,4.000000,4.000000,4.000000,4.000000,4.000000,4.000000,4.000000,4.000000,100.000000,7.000000,0.000000,0.579693,0.098022,-0.794861,0.150146,0.990250,-0.123049,-0.283696,-19.439995,-155.819031,-13.009842,,,,,,,,,,,,,,,,,,,,,,,,,,,,,,,,,,,,,,,,,,,,,,,,,,,,,,,,,,,,,,,,,,,,,,
1607645968.605638,29.000000,0.000000,4183.461426,4168.461426,4186.025879,4172.563965,4182.179688,4185.384766,4200.769043,4198.717773,4205.000000,4212.820313,4225.000000,4202.307617,4212.436035,4210.897461,0.000000,4.000000,,,,0.000000,4.000000,4.000000,4.000000,4.000000,4.000000,4.000000,4.000000,4.000000,4.000000,4.000000,4.000000,4.000000,4.000000,4.000000,100.000000,,,,,,,,,,,,,,,,,,,,,,,,,,,,,,,,,,,,,,,,,,,,,,,,,,,,,,,,,,,,,,,,,,,,,,,,,,,,,,,,,,
1607645968.613334,30.000000,0.000000,4175.256348,4169.487305,4182.179688,4161.922852,4166.666504,4183.846191,4195.256348,4197.436035,4199.487305,4205.000000,4212.692383,4197.948730,4204.230957,4199.230957,0.000000,4.000000,,,,0.000000,4.000000,4.000000,4.000000,4.000000,4.000000,4.000000,4.000000,4.000000,4.000000,4.000000,4.000000,4.000000,4.000000,4.000000,100.000000,,,,,,,,,,,,,,,,,,,,,,,,,,,,,,,,,,,,,,,,,,,,,,,,,,,,,,,,,,,,,,,,,,,,,,,,,,,,,,,,,,
1607645968.621131,31.000000,0.000000,4169.615234,4162.692383,4183.333496,4158.461426,4158.077148,4179.487305,4187.948730,4195.641113,4196.282227,4198.077148,4211.410156,4198.205078,4196.025879,4198.333496,0.000000,4.000000,,,,0.000000,4.000000,4.000000,4.000000,4.000000,4.000000,4.000000,4.000000,4.000000,4.000000,4.000000,4.000000,4.000000,4.000000,4.000000,100.000000,,,,,,,,,,,,,,,,,,,,,,,,,,,,,,,,,,,,,,,,,,,,,,,,,,,,,,,,,,,,,,,,,,,,,,,,,,,,,,,,,,
1607645968.628927,32.000000,0.000000,4168.461426,4157.820313,4181.410156,4166.922852,4166.538574,4180.512695,4191.410156,4196.666504,4196.538574,4199.487305,4217.307617,4198.846191,4198.461426,4201.025879,0.000000,4.000000,,,,0.000000,4.000000,4.000000,4.000000,4.000000,4.000000,4.000000,4.000000,4.000000,4.000000,4.000000,4.000000,4.000000,4.000000,4.000000,100.000000,8.000000,0.000000,0.579558,0.098511,-0.794922,0.150024,1.000992,-0.119142,-0.294926,-20.935377,-157.164871,-11.215381,,,,,,,,,,,,,,,,,,,,,,,,,,,,,,,,,,,,,,,,,,,,,,,,,,,,,,,,,,,,,,,,,,,,,,
1607645968.636723,33.000000,0.000000,4175.384766,4162.179688,4180.384766,4169.743652,4170.512695,4182.948730,4199.487305,4201.794922,4204.871582,4208.077148,4218.717773,4198.717773,4206.666504,4200.384766,0.000000,4.000000,,,,0.000000,4.000000,4.000000,4.000000,4.000000,4.000000,4.000000,4.000000,4.000000,4.000000,4.000000,4.000000,4.000000,4.000000,4.000000,100.000000,,,,,,,,,,,,,,,,,,,,,,,,,,,,,,,,,,,,,,,,,,,,,,,,,,,,,,,,,,,,,,,,,,,,,,,,,,,,,,,,,,
1607645968.644519,34.000000,0.000000,4185.384766,4170.512695,4183.461426,4168.205078,4167.820313,4185.769043,4200.384766,4204.743652,4214.230957,4217.692383,4224.487305,4201.282227,4211.922852,4206.153809,0.000000,4.000000,,,,0.000000,4.000000,4.000000,4.000000,4.000000,4.000000,4.000000,4.000000,4.000000,4.000000,4.000000,4.000000,4.000000,4.000000,4.000000,100.000000,,,,,,,,,,,,,,,,,,,,,,,,,,,,,,,,,,,,,,,,,,,,,,,,,,,,,,,,,,,,,,,,,,,,,,,,,,,,,,,,,,
1607645968.652316,35.000000,0.000000,4186.922852,4174.358887,4184.102539,4169.230957,4176.666504,4192.820313,4197.948730,4204.743652,4217.563965,4223.717773,4228.077148,4201.922852,4215.384766,4213.461426,0.000000,4.000000,,,,0.000000,4.000000,4.000000,4.000000,4.000000,4.000000,4.000000,4.000000,4.000000,4.000000,4.000000,4.000000,4.000000,4.000000,4.000000,100.000000,,,,,,,,,,,,,,,,,,,,,,,,,,,,,,,,,,,,,,,,,,,,,,,,,,,,,,,,,,,,,,,,,,,,,,,,,,,,,,,,,,
1607645968.660112,36.000000,0.000000,4183.974121,4174.487305,4184.615234,4169.358887,4181.922852,4193.846191,4197.820313,4205.000000,4213.205078,4222.692383,4224.358887,4201.282227,4216.666504,4210.512695,0.000000,4.000000,,,,0.000000,4.000000,4.000000,4.000000,4.000000,4.000000,4.000000,4.000000,4.000000,4.000000,4.000000,4.000000,4.000000,4.000000,4.000000,100.000000,9.000000,0.000000,0.579370,0.098938,-0.794983,0.150146,0.977554,-0.132326,-0.286625,-21.234455,-154.921799,-13.159381,,,,,,,,,,,,,,,,,,,,,,,,,,,,,,,,,,,,,,,,,,,,,,,,,,,,,,,,,,,,,,,,,,,,,,
1607645968.667908,37.000000,0.000000,4182.692383,4176.153809,4184.358887,4166.282227,4175.769043,4184.487305,4198.589844,4202.179688,4211.282227,4220.512695,4223.974121,4200.256348,4215.384766,4207.692383,0.000000,4.000000,,,,0.000000,4.000000,4.000000,4.000000,4.000000,4.000000,4.000000,4.000000,4.000000,4.000000,4.000000,4.000000,4.000000,4.000000,4.000000,100.000000,,,,,,,,,,,,,,,,,,,,,,,,,,,,,,,,,,,,,,,,,,,,,,,,,,,,,,,,,,,,,,,,,,,,,,,,,,,,,,,,,,
1607645968.675605,38.000000,0.000000,4185.256348,4170.128418,4183.846191,4168.717773,4177.948730,4185.128418,4197.820313,4201.922852,4214.230957,4220.769043,4227.307617,4201.922852,4217.051270,4213.205078,0.000000,4.000000,,,,0.000000,4.000000,4.000000,4.000000,4.000000,4.000000,4.000000,4.000000,4.000000,4.000000,4.000000,4.000000,4.000000,4.000000,4.000000,100.000000,,,,,,,,,,,,,,,,,,,,,,,,,,,,,,,,,,,,,,,,,,,,,,,,,,,,,,,,,,,,,,,,,,,,,,,,,,,,,,,,,,
1607645968.683401,39.000000,0.000000,4194.743652,4169.358887,4192.051270,4174.102539,4187.563965,4193.205078,4196.410156,4207.436035,4217.179688,4227.436035,4230.000000,4204.358887,4226.410156,4218.333496,0.000000,4.000000,,,,0.000000,4.000000,4.000000,4.000000,4.000000,4.000000,4.000000,4.000000,4.000000,4.000000,4.000000,4.000000,4.000000,4.000000,4.000000,100.000000,,,,,,,,,,,,,,,,,,,,,,,,,,,,,,,,,,,,,,,,,,,,,,,,,,,,,,,,,,,,,,,,,,,,,,,,,,,,,,,,,,
1607645968.691197,40.000000,0.000000,4200.128418,4183.461426,4198.461426,4174.102539,4186.666504,4192.948730,4195.769043,4210.000000,4216.153809,4231.922852,4228.974121,4203.589844,4233.077148,4218.589844,0.000000,4.000000,,,,0.000000,4.000000,4.000000,4.000000,4.000000,4.000000,4.000000,4.000000,4.000000,4.000000,4.000000,4.000000,4.000000,4.000000,4.000000,100.000000,10.000000,0.000000,0.578597,0.100464,-0.795227,0.150818,0.980972,-0.133303,-0.290532,-20.935377,-154.622726,-12.710765,,,,,,,,,,,,,,,,,,,,,,,,,,,,,,,,,,,,,,,,,,,,,,,,,,,,,,,,,,,,,,,,,,,,,,
1607645968.698993,41.000000,0.000000,4192.948730,4189.230957,4189.358887,4170.897461,4182.179688,4190.384766,4195.512695,4202.563965,4212.563965,4223.589844,4226.666504,4202.307617,4223.077148,4218.461426,0.000000,4.000000,,,,0.000000,4.000000,4.000000,4.000000,4.000000,4.000000,4.000000,4.000000,4.000000,4.000000,4.000000,4.000000,4.000000,4.000000,4.000000,100.000000,,,,,,,,,,,,,,,,,,,,,,,,,,,,,,,,,,,,,,,,,,,,,,,,,,,,,,,,,,,,,,,,,,,,,,,,,,,,,,,,,,
1607645968.706790,42.000000,0.000000,4190.128418,4179.743652,4183.717773,4170.256348,4185.256348,4192.948730,4197.179688,4198.846191,4211.538574,4217.563965,4225.256348,4203.461426,4214.871582,4215.384766,0.000000,4.000000,,,,0.000000,4.000000,4.000000,4.000000,4.000000,4.000000,4.000000,4.000000,4.000000,4.000000,4.000000,4.000000,4.000000,4.000000,4.000000,100.000000,,,,,,,,,,,,,1.546476,0.688325,0.592342,0.324100,0.113920,1.115860,0.859934,0.767735,0.547681,0.296042,0.889407,0.494698,0.628525,0.167094,0.115307,0.969891,0.651938,0.384794,0.110357,0.090385,1.079141,0.956212,0.377467,0.206135,0.174554,0.652251,0.600484,0.176215,0.187429,0.091098,0.289361,0.211818,0.221584,0.105329,0.055616,0.996941,0.717940,0.457279,0.109534,0.067848,1.791919,1.205486,0.728076,0.305897,0.128857,2.137266,1.270260,0.996432,0.311396,0.157862,1.706583,0.596687,0.419984,0.138241,0.111692,0.270049,0.072449,0.127373,0.052043,0.044510,2.090806,1.401957,1.144319,0.313305,0.131413,1.426845,0.805668,0.601282,0.257321,0.071640
1607645968.714586,43.000000,0.000000,4197.692383,4181.666504,4196.153809,4172.179688,4187.692383,4196.538574,4201.410156,4208.717773,4216.666504,4224.615234,4232.051270,4204.358887,4224.358887,4214.487305,0.000000,4.000000,,,,0.000000,4.000000,4.000000,4.000000,4.000000,4.000000,4.000000,4.000000,4.000000,4.000000,4.000000,4.000000,4.000000,4.000000,4.000000,100.000000,,,,,,,,,,,,,,,,,,,,,,,,,,,,,,,,,,,,,,,,,,,,,,,,,,,,,,,,,,,,,,,,,,,,,,,,,,,,,,,,,,
1607645968.722382,44.000000,0.000000,4200.512695,4190.000000,4201.025879,4173.717773,4187.948730,4195.897461,4202.692383,4212.051270,4221.794922,4226.538574,4233.461426,4203.461426,4229.230957,4216.922852,0.000000,4.000000,,,,0.000000,4.000000,4.000000,4.000000,4.000000,4.000000,4.000000,4.000000,4.000000,4.000000,4.000000,4.000000,4.000000,4.000000,4.000000,100.000000,11.000000,0.000000,0.578198,0.101013,-0.795471,0.150696,0.967300,-0.123537,-0.296391,-20.636301,-156.267639,-11.813535,,,,,,,,,,,,,,,,,,,,,,,,,,,,,,,,,,,,,,,,,,,,,,,,,,,,,,,,,,,,,,,,,,,,,,
1607645968.730179,45.000000,0.000000,4193.333496,4179.487305,4188.461426,4172.948730,4185.000000,4194.230957,4198.974121,4202.179688,4213.205078,4215.000000,4221.025879,4202.948730,4218.974121,4210.128418,0.000000,4.000000,,,,0.000000,4.000000,4.000000,4.000000,4.000000,4.000000,4.000000,4.000000,4.000000,4.000000,4.000000,4.000000,4.000000,4.000000,4.000000,100.000000,,,,,,,,,,,,,,,,,,,,,,,,,,,,,,,,,,,,,,,,,,,,,,,,,,,,,,,,,,,,,,,,,,,,,,,,,,,,,,,,,,
1607645968.737975,46.000000,0.000000,4184.871582,4169.487305,4183.077148,4170.128418,4181.794922,4192.051270,4198.333496,4197.692383,4200.641113,4208.077148,4215.641113,4201.410156,4207.948730,4198.974121,0.000000,4.000000,,,,0.000000,4.000000,4.000000,4.000000,4.000000,4.000000,4.000000,4.000000,4.000000,4.000000,4.000000,4.000000,4.000000,4.000000,4.000000,100.000000,,,,,,,,,,,,,,,,,,,,,,,,,,,,,,,,,,,,,,,,,,,,,,,,,,,,,,,,,,,,,,,,,,,,,,,,,,,,,,,,,,
1607645968.745671,47.000000,0.000000,4183.589844,4171.666504,4189.743652,4169.743652,4182.436035,4190.512695,4199.615234,4202.563965,4201.282227,4209.743652,4219.487305,4199.487305,4206.922852,4199.230957,0.000000,4.000000,,,,0.000000,4.000000,4.000000,4.000000,4.000000,4.000000,4.000000,4.000000,4.000000,4.000000,4.000000,4.000000,4.000000,4.000000,4.000000,100.000000,,,,,,,,,,,,,,,,,,,,,,,,,,,,,,,,,,,,,,,,,,,,,,,,,,,,,,,,,,,,,,,,,,,,,,,,,,,,,,,,,,
1607645968.753468,48.000000,0.000000,4185.512695,4171.538574,4190.256348,4170.769043,4186.153809,4193.974121,4198.846191,4205.000000,4209.230957,4210.769043,4220.641113,4199.487305,4210.128418,4205.128418,0.000000,4.000000,,,,0.000000,4.000000,4.000000,4.000000,4.000000,4.000000,4.000000,4.000000,4.000000,4.000000,4.000000,4.000000,4.000000,4.000000,4.000000,100.000000,12.000000,0.000000,0.578029,0.101379,-0.795593,0.150452,0.984390,-0.125978,-0.291508,-22.430761,-156.417175,-13.159381,,,,,,,,,,,,,,,,,,,,,,,,,,,,,,,,,,,,,,,,,,,,,,,,,,,,,,,,,,,,,,,,,,,,,,
1607645968.761264,49.000000,0.000000,4183.846191,4169.230957,4188.333496,4169.615234,4187.436035,4197.692383,4199.230957,4203.461426,4209.358887,4211.538574,4218.333496,4199.102539,4210.512695,4203.589844,0.000000,4.000000,,,,0.000000,4.000000,4.000000,4.000000,4.000000,4.000000,4.000000,4.000000,4.000000,4.000000,4.000000,4.000000,4.000000,4.000000,4.000000,100.000000,,,,,,,,,,,,,,,,,,,,,,,,,,,,,,,,,,,,,,,,,,,,,,,,,,,,,,,,,,,,,,,,,,,,,,,,,,,,,,,,,,
1607645968.769060,50.000000,0.000000,4183.717773,4170.641113,4194.358887,4168.205078,4179.487305,4194.230957,4198.589844,4204.487305,4204.102539,4211.922852,4219.102539,4199.358887,4214.871582,4201.410156,0.000000,4.000000,,,,0.000000,4.000000,4.000000,4.000000,4.000000,4.000000,4.000000,4.000000,4.000000,4.000000,4.000000,4.000000,4.000000,4.000000,4.000000,100.000000,,,,,,,,,,,,,,,,,,,,,,,,,,,,,,,,,,,,,,,,,,,,,,,,,,,,,,,,,,,,,,,,,,,,,,,,,,,,,,,,,,
1607645968.776856,51.000000,0.000000,4183.461426,4171.922852,4194.230957,4166.794922,4168.846191,4185.897461,4196.794922,4202.307617,4201.153809,4205.512695,4216.410156,4200.641113,4213.589844,4201.410156,0.000000,4.000000,,,,0.000000,4.000000,4.000000,4.000000,4.000000,4.000000,4.000000,4.000000,4.000000,4.000000,4.000000,4.000000,4.000000,4.000000,4.000000,100.000000,,,,,,,,,,,,,,,,,,,,,,,,,,,,,,,,,,,,,,,,,,,,,,,,,,,,,,,,,,,,,,,,,,,,,,,,,,,,,,,,,,
1607645968.784653,52.000000,0.000000,4181.666504,4171.410156,4186.794922,4167.692383,4172.307617,4185.641113,4197.436035,4201.282227,4200.769043,4200.512695,4214.358887,4200.769043,4205.256348,4200.128418,0.000000,4.000000,,,,0.000000,4.000000,4.000000,4.000000,4.000000,4.000000,4.000000,4.000000,4.000000,4.000000,4.000000,4.000000,4.000000,4.000000,4.000000,100.000000,13.000000,0.000000,0.577594,0.102173,-0.795715,0.150940,0.987320,-0.140627,-0.298344,-21.234455,-156.118103,-11.215381,,,,,,,,,,,,,,,,,,,,,,,,,,,,,,,,,,,,,,,,,,,,,,,,,,,,,,,,,,,,,,,,,,,,,,
1607645968.792449,53.000000,0.000000,4182.436035,4174.230957,4186.410156,4168.077148,4183.717773,4189.102539,4199.743652,4203.846191,4203.333496,4202.948730,4217.436035,4199.743652,4204.358887,4201.025879,0.000000,4.000000,,,,0.000000,4.000000,4.000000,4.000000,4.000000,4.000000,4.000000,4.000000,4.000000,4.000000,4.000000,4.000000,4.000000,4.000000,4.000000,100.000000,,,,,,,,,,,,,,,,,,,,,,,,,,,,,,,,,,,,,,,,,,,,,,,,,,,,,,,,,,,,,,,,,,,,,,,,,,,,,,,,,,
1607645968.800245,54.000000,0.000000,4180.897461,4175.512695,4186.410156,4165.769043,4183.077148,4191.025879,4198.717773,4200.256348,4201.538574,4203.846191,4215.128418,4199.230957,4208.205078,4200.384766,0.000000,4.000000,,,,0.000000,4.000000,4.000000,4.000000,4.000000,4.000000,4.000000,4.000000,4.000000,4.000000,4.000000,4.000000,4.000000,4.000000,4.000000,100.000000,,,,,,,,,,,,,,,,,,,,,,,,,,,,,,,,,,,,,,,,,,,,,,,,,,,,,,,,,,,,,,,,,,,,,,,,,,,,,,,,,,
1607645968.808042,55.000000,0.000000,4180.512695,4170.897461,4183.461426,4170.512695,4180.769043,4197.563965,4198.077148,4197.307617,4197.820313,4205.641113,4213.205078,4198.846191,4207.307617,4199.230957,0.000000,4.000000,,,,0.000000,4.000000,4.000000,4.000000,4.000000,4.000000,4.000000,4.000000,4.000000,4.000000,4.000000,4.000000,4.000000,4.000000,4.000000,100.000000,,,,,,,,,,,,,,,,,,,,,,,,,,,,,,,,,,,,,,,,,,,,,,,,,,,,,,,,,,,,,,,,,,,,,,,,,,,,,,,,,,
1607645968.815838,56.000000,0.000000,4192.692383,4172.820313,4191.666504,4183.333496,4192.820313,4208.461426,4203.077148,4209.102539,4206.922852,4219.102539,4223.461426,4202.307617,4216.282227,4208.974121,0.000000,4.000000,,,,0.000000,4.000000,4.000000,4.000000,4.000000,4.000000,4.000000,4.000000,4.000000,4.000000,4.000000,4.000000,4.000000,4.000000,4.000000,100.000000,14.000000,0.000000,0.576561,0.104187,-0.795959,0.152222,0.986831,-0.138674,-0.312505,-21.084917,-155.819031,-12.262150,,,,,,,,,,,,,,,,,,,,,,,,,,,,,,,,,,,,,,,,,,,,,,,,,,,,,,,,,,,,,,,,,,,,,,
1607645968.823534,57.000000,0.000000,4205.000000,4187.692383,4202.436035,4188.846191,4203.333496,4211.538574,4205.000000,4220.769043,4220.769043,4227.820313,4234.230957,4203.974121,4229.358887,4220.769043,0.000000,4.000000,,,,0.000000,4.000000,4.000000,4.000000,4.000000,4.000000,4.000000,4.000000,4.000000,4.000000,4.000000,4.000000,4.000000,4.000000,4.000000,100.000000,,,,,,,,,,,,,,,,,,,,,,,,,,,,,,,,,,,,,,,,,,,,,,,,,,,,,,,,,,,,,,,,,,,,,,,,,,,,,,,,,,
1607645968.831331,58.000000,0.000000,4201.794922,4200.384766,4200.769043,4186.410156,4201.153809,4210.000000,4202.436035,4216.922852,4218.333496,4222.948730,4233.333496,4200.897461,4226.153809,4219.615234,0.000000,4.000000,,,,0.000000,4.000000,4.000000,4.000000,4.000000,4.000000,4.000000,4.000000,4.000000,4.000000,4.000000,4.000000,4.000000,4.000000,4.000000,100.000000,,,,,,,,,,,,,1.634146,0.860537,0.691481,0.301563,0.119698,1.175666,0.992781,0.827997,0.560777,0.320288,0.881621,0.620540,0.674524,0.169823,0.120465,0.820283,0.673974,0.436944,0.110727,0.094413,1.153504,1.072127,0.428116,0.174874,0.185551,0.723835,0.681417,0.209802,0.173216,0.093244,0.319153,0.242025,0.238580,0.096162,0.057857,0.896563,0.814018,0.490133,0.106650,0.070861,1.682129,1.351732,0.809961,0.319926,0.130516,2.000426,1.570026,1.136566,0.328136,0.163277,1.651426,0.712202,0.474183,0.133620,0.118339,0.222916,0.103268,0.122327,0.058516,0.043604,2.004174,1.686917,1.387334,0.343985,0.149945,1.380956,0.964025,0.691130,0.275559,0.075225
1607645968.839127,59.000000,0.000000,4200.384766,4203.077148,4199.358887,4185.897461,4197.307617,4214.358887,4205.769043,4214.871582,4212.436035,4224.230957,4232.179688,4205.641113,4224.615234,4215.512695,0.000000,4.000000,,,,0.000000,4.000000,4.000000,4.000000,4.000000,4.000000,4.000000,4.000000,4.000000,4.000000,4.000000,4.000000,4.000000,4.000000,4.000000,100.000000,,,,,,,,,,,,,,,,,,,,,,,,,,,,,,,,,,,,,,,,,,,,,,,,,,,,,,,,,,,,,,,,,,,,,,,,,,,,,,,,,,
1607645968.846923,60.000000,0.000000,4208.846191,4200.641113,4204.487305,4188.077148,4207.692383,4218.205078,4210.512695,4222.563965,4222.692383,4233.461426,4236.282227,4211.794922,4231.794922,4222.436035,0.000000,4.000000,,,,0.000000,4.000000,4.000000,4.000000,4.000000,4.000000,4.000000,4.000000,4.000000,4.000000,4.000000,4.000000,4.000000,4.000000,4.000000,100.000000,15.000000,0.000000,0.575782,0.105530,-0.796265,0.152649,0.968765,-0.138674,-0.315435,-21.832609,-155.071335,-12.561227,,,,,,,,,,,,,,,,,,,,,,,,,,,,,,,,,,,,,,,,,,,,,,,,,,,,,,,,,,,,,,,,,,,,,,
1607645968.854719,61.000000,0.000000,4211.410156,4198.846191,4207.820313,4194.102539,4217.307617,4216.794922,4205.128418,4222.820313,4231.538574,4235.384766,4235.512695,4211.538574,4232.948730,4229.871582,0.000000,4.000000,,,,0.000000,4.000000,4.000000,4.000000,4.000000,4.000000,4.000000,4.000000,4.000000,4.000000,4.000000,4.000000,4.000000,4.000000,4.000000,100.000000,,,,,,,,,,,,,,,,,,,,,,,,,,,,,,,,,,,,,,,,,,,,,,,,,,,,,,,,,,,,,,,,,,,,,,,,,,,,,,,,,,
1607645968.862516,62.000000,0.000000,4211.922852,4201.922852,4210.256348,4200.128418,4210.000000,4216.025879,4200.256348,4217.820313,4228.846191,4236.410156,4235.128418,4213.205078,4233.333496,4230.256348,0.000000,4.000000,,,,0.000000,4.000000,4.000000,4.000000,4.000000,4.000000,4.000000,4.000000,4.000000,4.000000,4.000000,4.000000,4.000000,4.000000,4.000000,100.000000,,,,,,,,,,,,,,,,,,,,,,,,,,,,,,,,,,,,,,,,,,,,,,,,,,,,,,,,,,,,,,,,,,,,,,,,,,,,,,,,,,
1607645968.870312,63.000000,0.000000,4217.179688,4203.333496,4215.384766,4199.615234,4203.846191,4217.307617,4208.589844,4222.179688,4230.256348,4243.589844,4240.897461,4217.436035,4235.000000,4230.256348,0.000000,4.000000,,,,0.000000,4.000000,4.000000,4.000000,4.000000,4.000000,4.000000,4.000000,4.000000,4.000000,4.000000,4.000000,4.000000,4.000000,4.000000,100.000000,,,,,,,,,,,,,,,,,,,,,,,,,,,,,,,,,,,,,,,,,,,,,,,,,,,,,,,,,,,,,,,,,,,,,,,,,,,,,,,,,,
1607645968.878108,64.000000,0.000000,4217.820313,4204.102539,4217.307617,4198.205078,4213.205078,4218.461426,4216.922852,4225.769043,4235.641113,4243.846191,4240.384766,4217.307617,4235.128418,4234.871582,2929.000000,4.000000,,,,0.000000,4.000000,4.000000,4.000000,4.000000,4.000000,4.000000,4.000000,4.000000,4.000000,4.000000,4.000000,4.000000,4.000000,4.000000,100.000000,16.000000,0.000000,0.575800,0.105652,-0.796387,0.151855,0.958999,-0.129885,-0.308110,-20.935377,-154.622726,-13.907073,,,,,,,,,,,,,,,,,,,,,,,,,,,,,,,,,,,,,,,,,,,,,,,,,,,,,,,,,,,,,,,,,,,,,,
1607645968.885905,65.000000,0.000000,4215.897461,4209.230957,4212.692383,4199.871582,4219.102539,4218.846191,4215.641113,4220.769043,4231.282227,4230.897461,4233.205078,4215.256348,4230.256348,4232.563965,2244.000000,4.000000,,,,0.000000,4.000000,4.000000,4.000000,4.000000,4.000000,4.000000,4.000000,4.000000,4.000000,4.000000,4.000000,4.000000,4.000000,4.000000,100.000000,,,,,,,,,,,,,,,,,,,,,,,,,,,,,,,,,,,,,,,,,,,,,,,,,,,,,,,,,,,,,,,,,,,,,,,,,,,,,,,,,,
1607645968.893601,66.000000,0.000000,4217.307617,4211.538574,4212.436035,4199.358887,4215.384766,4216.666504,4209.615234,4218.846191,4221.153809,4222.692383,4231.025879,4213.846191,4222.051270,4221.922852,3460.000000,4.000000,,,,0.000000,4.000000,4.000000,4.000000,4.000000,4.000000,4.000000,4.000000,4.000000,4.000000,4.000000,4.000000,4.000000,4.000000,4.000000,100.000000,,,,,,,,,,,,,,,,,,,,,,,,,,,,,,,,,,,,,,,,,,,,,,,,,,,,,,,,,,,,,,,,,,,,,,,,,,,,,,,,,,
1607645968.901397,67.000000,0.000000,4211.666504,4205.897461,4212.820313,4197.051270,4213.717773,4214.102539,4206.153809,4220.897461,4217.307617,4225.128418,4227.436035,4214.487305,4218.589844,4217.563965,3402.000000,4.000000,,,,0.000000,4.000000,4.000000,4.000000,4.000000,4.000000,4.000000,4.000000,4.000000,4.000000,4.000000,4.000000,4.000000,4.000000,4.000000,100.000000,,,,,,,,,,,,,,,,,,,,,,,,,,,,,,,,,,,,,,,,,,,,,,,,,,,,,,,,,,,,,,,,,,,,,,,,,,,,,,,,,,
1607645968.909194,68.000000,0.000000,4203.205078,4199.615234,4207.307617,4197.820313,4210.512695,4214.615234,4207.307617,4219.230957,4218.461426,4223.205078,4219.358887,4212.307617,4222.692383,4219.871582,3645.000000,4.000000,,,,0.000000,4.000000,4.000000,4.000000,4.000000,4.000000,4.000000,4.000000,4.000000,4.000000,4.000000,4.000000,4.000000,4.000000,4.000000,100.000000,17.000000,0.000000,0.576060,0.105286,-0.796387,0.151123,0.964858,-0.128908,-0.305180,-20.038147,-154.921799,-13.159381,,,,,,,,,,,,,,,,,,,,,,,,,,,,,,,,,,,,,,,,,,,,,,,,,,,,,,,,,,,,,,,,,,,,,,
1607645968.916990,69.000000,0.000000,4202.563965,4199.487305,4203.589844,4198.717773,4205.000000,4213.461426,4206.666504,4216.410156,4215.256348,4214.487305,4215.641113,4206.410156,4215.641113,4218.461426,3318.000000,4.000000,,,,0.000000,4.000000,4.000000,4.000000,4.000000,4.000000,4.000000,4.000000,4.000000,4.000000,4.000000,4.000000,4.000000,4.000000,4.000000,100.000000,,,,,,,,,,,,,,,,,,,,,,,,,,,,,,,,,,,,,,,,,,,,,,,,,,,,,,,,,,,,,,,,,,,,,,,,,,,,,,,,,,
1607645968.924786,70.000000,0.000000,4201.153809,4201.922852,4204.743652,4197.563965,4205.128418,4208.717773,4201.282227,4216.025879,4209.487305,4210.384766,4212.948730,4202.948730,4201.025879,4212.820313,2003.000000,4.000000,,,,0.000000,4.000000,4.000000,4.000000,4.000000,4.000000,4.000000,4.000000,4.000000,4.000000,4.000000,4.000000,4.000000,4.000000,4.000000,100.000000,,,,,,,,,,,,,,,,,,,,,,,,,,,,,,,,,,,,,,,,,,,,,,,,,,,,,,,,,,,,,,,,,,,,,,,,,,,,,,,,,,
1607645968.932582,71.000000,0.000000,4202.563965,4203.846191,4205.897461,4199.230957,4209.743652,4210.000000,4201.922852,4216.666504,4210.000000,4215.897461,4209.487305,4206.153809,4205.897461,4215.897461,3113.000000,4.000000,,,,0.000000,4.000000,4.000000,4.000000,4.000000,4.000000,4.000000,4.000000,4.000000,4.000000,4.000000,4.000000,4.000000,4.000000,4.000000,100.000000,,,,,,,,,,,,,,,,,,,,,,,,,,,,,,,,,,,,,,,,,,,,,,,,,,,,,,,,,,,,,,,,,,,,,,,,,,,,,,,,,,
1607645968.940379,72.000000,0.000000,4207.179688,4203.461426,4204.871582,4198.205078,4208.717773,4213.461426,4208.846191,4213.333496,4209.358887,4212.436035,4206.922852,4209.487305,4212.051270,4217.563965,3465.000000,4.000000,,,,0.000000,4.000000,4.000000,4.000000,4.000000,4.000000,4.000000,4.000000,4.000000,4.000000,4.000000,4.000000,4.000000,4.000000,4.000000,100.000000,18.000000,0.000000,0.576836,0.104309,-0.796265,0.149475,0.990738,-0.106935,-0.290044,-21.533531,-154.772263,-11.364920,,,,,,,,,,,,,,,,,,,,,,,,,,,,,,,,,,,,,,,,,,,,,,,,,,,,,,,,,,,,,,,,,,,,,,
1607645968.948175,73.000000,0.000000,4201.666504,4197.820313,4201.410156,4190.769043,4202.692383,4211.922852,4207.179688,4208.333496,4199.358887,4198.589844,4200.897461,4206.666504,4201.922852,4205.128418,3629.000000,4.000000,,,,0.000000,4.000000,4.000000,4.000000,4.000000,4.000000,4.000000,4.000000,4.000000,4.000000,4.000000,4.000000,4.000000,4.000000,4.000000,100.000000,,,,,,,,,,,,,,,,,,,,,,,,,,,,,,,,,,,,,,,,,,,,,,,,,,,,,,,,,,,,,,,,,,,,,,,,,,,,,,,,,,
1607645968.955971,74.000000,0.000000,4198.589844,4196.025879,4201.025879,4190.641113,4208.717773,4211.025879,4202.563965,4212.307617,4198.077148,4201.666504,4199.102539,4205.641113,4203.589844,4202.051270,3566.000000,4.000000,,,,0.000000,4.000000,4.000000,4.000000,4.000000,4.000000,4.000000,4.000000,4.000000,4.000000,4.000000,4.000000,4.000000,4.000000,4.000000,100.000000,,,,,,,,,,,,,1.722346,1.213298,0.813742,0.266315,0.120109,1.295290,1.207610,0.864097,0.580527,0.339621,0.939292,0.865922,0.699424,0.158122,0.118695,0.786010,0.743080,0.511330,0.108081,0.100346,1.261060,1.264741,0.481878,0.166504,0.188428,0.846342,0.784075,0.274758,0.153565,0.094350,0.356168,0.269301,0.253545,0.085654,0.061281,0.870973,0.906470,0.532132,0.106733,0.074951,1.725660,1.544132,0.904045,0.333037,0.132429,2.061353,2.056213,1.309668,0.347702,0.167205,1.608385,0.957290,0.574160,0.134436,0.119503,0.201582,0.158987,0.130007,0.068037,0.044613,2.038462,2.227591,1.634698,0.379949,0.168199,1.362460,1.295830,0.822106,0.290778,0.078900
1607645968.963668,75.000000,0.000000,4207.179688,4204.615234,4207.436035,4199.230957,4216.666504,4215.897461,4204.743652,4219.230957,4211.025879,4217.692383,4205.897461,4213.205078,4218.717773,4217.051270,3479.000000,4.000000,,,,0.000000,4.000000,4.000000,4.000000,4.000000,4.000000,4.000000,4.000000,4.000000,4.000000,4.000000,4.000000,4.000000,4.000000,4.000000,100.000000,,,,,,,,,,,,,,,,,,,,,,,,,,,,,,,,,,,,,,,,,,,,,,,,,,,,,,,,,,,,,,,,,,,,,,,,,,,,,,,,,,
1607645968.971464,76.000000,0.000000,4206.666504,4212.948730,4206.794922,4197.051270,4208.205078,4214.102539,4205.256348,4217.307617,4211.666504,4216.153809,4206.282227,4216.410156,4215.769043,4218.589844,3006.000000,4.000000,,,,0.000000,4.000000,4.000000,4.000000,4.000000,4.000000,4.000000,4.000000,4.000000,4.000000,4.000000,4.000000,4.000000,4.000000,4.000000,100.000000,19.000000,0.000000,0.577599,0.103394,-0.796082,0.148132,0.988296,-0.116701,-0.294926,-20.486763,-156.417175,-12.411689,,,,,,,,,,,,,,,,,,,,,,,,,,,,,,,,,,,,,,,,,,,,,,,,,,,,,,,,,,,,,,,,,,,,,,
1607645968.979260,77.000000,0.000000,4198.461426,4205.000000,4201.922852,4189.871582,4198.846191,4204.102539,4203.205078,4215.384766,4206.410156,4207.563965,4200.769043,4208.589844,4206.922852,4208.077148,1298.000000,4.000000,,,,0.000000,4.000000,4.000000,4.000000,4.000000,4.000000,4.000000,4.000000,4.000000,4.000000,4.000000,4.000000,4.000000,4.000000,4.000000,100.000000,,,,,,,,,,,,,,,,,,,,,,,,,,,,,,,,,,,,,,,,,,,,,,,,,,,,,,,,,,,,,,,,,,,,,,,,,,,,,,,,,,
1607645968.987057,78.000000,0.000000,4199.743652,4188.974121,4206.666504,4193.333496,4202.692383,4200.000000,4203.974121,4214.230957,4208.717773,4212.692383,4203.461426,4206.666504,4213.205078,4209.871582,3566.000000,4.000000,,,,0.000000,4.000000,4.000000,4.000000,4.000000,4.000000,4.000000,4.000000,4.000000,4.000000,4.000000,4.000000,4.000000,4.000000,4.000000,100.000000,,,,,,,,,,,,,,,,,,,,,,,,,,,,,,,,,,,,,,,,,,,,,,,,,,,,,,,,,,,,,,,,,,,,,,,,,,,,,,,,,,
1607645968.994853,79.000000,0.000000,4203.205078,4191.538574,4208.461426,4193.846191,4203.333496,4201.538574,4202.563965,4210.256348,4207.948730,4216.410156,4204.358887,4210.000000,4217.179688,4212.820313,3479.000000,4.000000,,,,0.000000,4.000000,4.000000,4.000000,4.000000,4.000000,4.000000,4.000000,4.000000,4.000000,4.000000,4.000000,4.000000,4.000000,4.000000,100.000000,,,,,,,,,,,,,,,,,,,,,,,,,,,,,,,,,,,,,,,,,,,,,,,,,,,,,,,,,,,,,,,,,,,,,,,,,,,,,,,,,,
1607645969.002649,80.000000,0.000000,4201.410156,4207.436035,4203.461426,4185.641113,4201.538574,4202.307617,4202.692383,4212.051270,4206.666504,4214.102539,4199.743652,4210.128418,4215.384766,4209.871582,3006.000000,4.000000,,,,0.000000,4.000000,4.000000,4.000000,4.000000,4.000000,4.000000,4.000000,4.000000,4.000000,4.000000,4.000000,4.000000,4.000000,4.000000,100.000000,20.000000,0.000000,0.577694,0.103333,-0.796021,0.148132,0.979019,-0.123537,-0.297856,-20.636301,-155.819031,-13.757534,,,,,,,,,,,,,,,,,,,,,,,,,,,,,,,,,,,,,,,,,,,,,,,,,,,,,,,,,,,,,,,,,,,,,,
1607645969.010445,81.000000,0.000000,4200.256348,4210.769043,4203.205078,4185.128418,4203.205078,4201.922852,4209.358887,4216.538574,4213.589844,4214.230957,4205.384766,4210.641113,4218.846191,4214.102539,1298.000000,4.000000,,,,0.000000,4.000000,4.000000,4.000000,4.000000,4.000000,4.000000,4.000000,4.000000,4.000000,4.000000,4.000000,4.000000,4.000000,4.000000,100.000000,,,,,,,,,,,,,,,,,,,,,,,,,,,,,,,,,,,,,,,,,,,,,,,,,,,,,,,,,,,,,,,,,,,,,,,,,,,,,,,,,,
1607645969.018242,82.000000,0.000000,4202.179688,4201.153809,4205.641113,4189.358887,4201.666504,4204.102539,4208.205078,4215.000000,4215.000000,4215.128418,4213.333496,4209.102539,4223.077148,4215.641113,3566.000000,4.000000,,,,0.000000,4.000000,4.000000,4.000000,4.000000,4.000000,4.000000,4.000000,4.000000,4.000000,4.000000,4.000000,4.000000,4.000000,4.000000,100.000000,,,,,,,,,,,,,,,,,,,,,,,,,,,,,,,,,,,,,,,,,,,,,,,,,,,,,,,,,,,,,,,,,,,,,,,,,,,,,,,,,,
1607645969.026038,83.000000,0.000000,4202.307617,4198.717773,4202.820313,4187.948730,4201.538574,4203.589844,4200.128418,4212.436035,4206.410156,4216.153809,4207.563965,4206.538574,4218.717773,4210.256348,3479.000000,4.000000,,,,0.000000,4.000000,4.000000,4.000000,4.000000,4.000000,4.000000,4.000000,4.000000,4.000000,4.000000,4.000000,4.000000,4.000000,4.000000,100.000000,,,,,,,,,,,,,,,,,,,,,,,,,,,,,,,,,,,,,,,,,,,,,,,,,,,,,,,,,,,,,,,,,,,,,,,,,,,,,,,,,,
1607645969.033734,84.000000,0.000000,4201.794922,4204.230957,4201.794922,4186.282227,4204.615234,4201.794922,4201.153809,4214.230957,4208.205078,4217.692383,4200.384766,4209.230957,4215.769043,4209.230957,3006.000000,4.000000,,,,0.000000,4.000000,4.000000,4.000000,4.000000,4.000000,4.000000,4.000000,4.000000,4.000000,4.000000,4.000000,4.000000,4.000000,4.000000,100.000000,21.000000,0.000000,0.577785,0.103088,-0.796021,0.147949,0.971695,-0.122560,-0.301274,-20.935377,-156.118103,-14.654764,,,,,,,,,,,,,,,,,,,,,,,,,,,,,,,,,,,,,,,,,,,,,,,,,,,,,,,,,,,,,,,,,,,,,,
1607645969.041531,85.000000,0.000000,4202.307617,4200.512695,4203.589844,4187.820313,4203.717773,4203.461426,4207.436035,4216.282227,4213.717773,4217.051270,4203.846191,4210.769043,4216.538574,4208.717773,1298.000000,4.000000,,,,0.000000,4.000000,4.000000,4.000000,4.000000,4.000000,4.000000,4.000000,4.000000,4.000000,4.000000,4.000000,4.000000,4.000000,4.000000,100.000000,,,,,,,,,,,,,,,,,,,,,,,,,,,,,,,,,,,,,,,,,,,,,,,,,,,,,,,,,,,,,,,,,,,,,,,,,,,,,,,,,,
1607645969.049327,86.000000,0.000000,4202.948730,4197.820313,4204.615234,4187.820313,4205.641113,4204.102539,4205.641113,4215.769043,4211.794922,4215.128418,4208.077148,4209.358887,4214.615234,4209.102539,3566.000000,4.000000,,,,0.000000,4.000000,4.000000,4.000000,4.000000,4.000000,4.000000,4.000000,4.000000,4.000000,4.000000,4.000000,4.000000,4.000000,4.000000,100.000000,,,,,,,,,,,,,,,,,,,,,,,,,,,,,,,,,,,,,,,,,,,,,,,,,,,,,,,,,,,,,,,,,,,,,,,,,,,,,,,,,,
1607645969.057123,87.000000,0.000000,4202.820313,4207.563965,4201.025879,4185.128418,4207.436035,4202.948730,4202.307617,4213.846191,4208.846191,4217.436035,4204.487305,4209.487305,4215.897461,4213.077148,3479.000000,4.000000,,,,0.000000,4.000000,4.000000,4.000000,4.000000,4.000000,4.000000,4.000000,4.000000,4.000000,4.000000,4.000000,4.000000,4.000000,4.000000,100.000000,,,,,,,,,,,,,,,,,,,,,,,,,,,,,,,,,,,,,,,,,,,,,,,,,,,,,,,,,,,,,,,,,,,,,,,,,,,,,,,,,,
1607645969.064920,88.000000,0.000000,4202.307617,4210.384766,4198.333496,4184.871582,4200.384766,4201.922852,4203.846191,4215.897461,4212.436035,4223.077148,4204.102539,4207.948730,4219.102539,4214.743652,3006.000000,4.000000,,,,0.000000,4.000000,4.000000,4.000000,4.000000,4.000000,4.000000,4.000000,4.000000,4.000000,4.000000,4.000000,4.000000,4.000000,4.000000,100.000000,22.000000,0.000000,0.578267,0.102112,-0.795898,0.147400,0.981460,-0.147951,-0.296391,-22.131685,-155.370407,-11.963073,,,,,,,,,,,,,,,,,,,,,,,,,,,,,,,,,,,,,,,,,,,,,,,,,,,,,,,,,,,,,,,,,,,,,,
1607645969.072716,89.000000,0.000000,4204.358887,4204.743652,4208.205078,4191.794922,4199.358887,4202.692383,4205.512695,4218.717773,4216.538574,4225.128418,4213.589844,4207.307617,4220.769043,4214.230957,1298.000000,4.000000,,,,0.000000,4.000000,4.000000,4.000000,4.000000,4.000000,4.000000,4.000000,4.000000,4.000000,4.000000,4.000000,4.000000,4.000000,4.000000,100.000000,,,,,,,,,,,,,,,,,,,,,,,,,,,,,,,,,,,,,,,,,,,,,,,,,,,,,,,,,,,,,,,,,,,,,,,,,,,,,,,,,,
1607645969.080512,90.000000,0.000000,4211.538574,4210.897461,4213.974121,4194.487305,4208.077148,4203.333496,4204.358887,4215.000000,4209.102539,4220.256348,4216.153809,4207.051270,4222.051270,4216.410156,3566.000000,4.000000,,,,0.000000,4.000000,4.000000,4.000000,4.000000,4.000000,4.000000,4.000000,4.000000,4.000000,4.000000,4.000000,4.000000,4.000000,4.000000,100.000000,,,,,,,,,,,,,1.857199,1.761419,0.947648,0.231265,0.115425,1.543695,1.534000,0.887886,0.601219,0.348629,1.111459,1.235532,0.704237,0.136645,0.112700,0.915217,0.891236,0.606117,0.106081,0.109275,1.479662,1.587729,0.550635,0.174168,0.184141,1.046915,0.931513,0.364516,0.130678,0.094536,0.408578,0.298988,0.268946,0.078495,0.065977,0.971950,1.023210,0.579202,0.107828,0.080244,2.021558,1.818104,1.009301,0.338867,0.135616,2.462670,2.717016,1.490136,0.363826,0.170518,1.633794,1.335719,0.703847,0.138501,0.117432,0.220982,0.234920,0.146927,0.077628,0.045745,2.282373,2.981775,1.848698,0.416322,0.184065,1.477146,1.809551,0.974018,0.299948,0.083096
1607645969.088308,91.000000,0.000000,4215.384766,4218.846191,4206.025879,4188.205078,4206.666504,4204.487305,4202.692383,4211.666504,4201.410156,4216.410156,4205.897461,4203.846191,4221.922852,4217.563965,3479.000000,4.000000,,,,0.000000,4.000000,4.000000,4.000000,4.000000,4.000000,4.000000,4.000000,4.000000,4.000000,4.000000,4.000000,4.000000,4.000000,4.000000,100.000000,,,,,,,,,,,,,,,,,,,,,,,,,,,,,,,,,,,,,,,,,,,,,,,,,,,,,,,,,,,,,,,,,,,,,,,,,,,,,,,,,,
1607645969.096105,92.000000,0.000000,4211.794922,4214.871582,4200.128418,4187.692383,4202.692383,4206.538574,4203.846191,4214.102539,4207.179688,4216.794922,4201.538574,4200.641113,4217.307617,4215.128418,3006.000000,4.000000,,,,0.000000,4.000000,4.000000,4.000000,4.000000,4.000000,4.000000,4.000000,4.000000,4.000000,4.000000,4.000000,4.000000,4.000000,4.000000,100.000000,23.000000,0.000000,0.578580,0.101440,-0.795654,0.147949,0.979995,-0.156741,-0.285649,-20.187687,-154.772263,-12.262150,,,,,,,,,,,,,,,,,,,,,,,,,,,,,,,,,,,,,,,,,,,,,,,,,,,,,,,,,,,,,,,,,,,,,,
1607645969.103901,93.000000,0.000000,4210.384766,4208.205078,4205.256348,4195.384766,4204.230957,4211.410156,4204.871582,4213.589844,4211.153809,4214.743652,4203.589844,4203.589844,4214.743652,4213.717773,1298.000000,4.000000,,,,0.000000,4.000000,4.000000,4.000000,4.000000,4.000000,4.000000,4.000000,4.000000,4.000000,4.000000,4.000000,4.000000,4.000000,4.000000,100.000000,,,,,,,,,,,,,,,,,,,,,,,,,,,,,,,,,,,,,,,,,,,,,,,,,,,,,,,,,,,,,,,,,,,,,,,,,,,,,,,,,,
1607645969.111597,94.000000,0.000000,4212.436035,4204.358887,4210.000000,4199.743652,4208.589844,4214.615234,4202.051270,4210.000000,4204.615234,4213.077148,4200.897461,4207.692383,4214.615234,4212.563965,3566.000000,4.000000,,,,0.000000,4.000000,4.000000,4.000000,4.000000,4.000000,4.000000,4.000000,4.000000,4.000000,4.000000,4.000000,4.000000,4.000000,4.000000,100.000000,,,,,,,,,,,,,,,,,,,,,,,,,,,,,,,,,,,,,,,,,,,,,,,,,,,,,,,,,,,,,,,,,,,,,,,,,,,,,,,,,,
1607645969.119394,95.000000,0.000000,4210.256348,4203.846191,4210.000000,4200.256348,4215.512695,4210.512695,4203.846191,4210.897461,4203.846191,4211.025879,4204.871582,4207.051270,4212.820313,4214.358887,3479.000000,4.000000,,,,0.000000,4.000000,4.000000,4.000000,4.000000,4.000000,4.000000,4.000000,4.000000,4.000000,4.000000,4.000000,4.000000,4.000000,4.000000,100.000000,,,,,,,,,,,,,,,,,,,,,,,,,,,,,,,,,,,,,,,,,,,,,,,,,,,,,,,,,,,,,,,,,,,,,,,,,,,,,,,,,,
1607645969.127190,96.000000,0.000000,4211.153809,4214.102539,4213.461426,4199.743652,4212.692383,4209.102539,4209.615234,4213.461426,4211.410156,4211.410156,4213.461426,4209.230957,4216.794922,4216.666504,3006.000000,4.000000,,,,0.000000,4.000000,4.000000,4.000000,4.000000,4.000000,4.000000,4.000000,4.000000,4.000000,4.000000,4.000000,4.000000,4.000000,4.000000,100.000000,24.000000,0.000000,0.578797,0.100891,-0.795532,0.148132,0.976577,-0.152834,-0.293462,-20.038147,-157.164871,-11.215381,,,,,,,,,,,,,,,,,,,,,,,,,,,,,,,,,,,,,,,,,,,,,,,,,,,,,,,,,,,,,,,,,,,,,,
1607645969.134986,97.000000,0.000000,4214.615234,4218.846191,4213.205078,4198.077148,4207.692383,4211.922852,4207.563965,4214.358887,4213.846191,4214.487305,4215.897461,4212.051270,4218.717773,4216.666504,1298.000000,4.000000,,,,0.000000,4.000000,4.000000,4.000000,4.000000,4.000000,4.000000,4.000000,4.000000,4.000000,4.000000,4.000000,4.000000,4.000000,4.000000,100.000000,,,,,,,,,,,,,,,,,,,,,,,,,,,,,,,,,,,,,,,,,,,,,,,,,,,,,,,,,,,,,,,,,,,,,,,,,,,,,,,,,,
1607645969.142782,98.000000,0.000000,4210.000000,4208.461426,4207.179688,4197.820313,4214.358887,4212.563965,4200.256348,4216.025879,4211.153809,4210.641113,4215.256348,4208.205078,4212.820313,4215.128418,3566.000000,4.000000,,,,0.000000,4.000000,4.000000,4.000000,4.000000,4.000000,4.000000,4.000000,4.000000,4.000000,4.000000,4.000000,4.000000,4.000000,4.000000,100.000000,,,,,,,,,,,,,,,,,,,,,,,,,,,,,,,,,,,,,,,,,,,,,,,,,,,,,,,,,,,,,,,,,,,,,,,,,,,,,,,,,,
1607645969.150579,99.000000,0.000000,4207.563965,4202.563965,4207.179688,4198.077148,4217.436035,4212.179688,4202.948730,4217.179688,4209.615234,4203.589844,4217.051270,4206.794922,4207.307617,4213.077148,3479.000000,4.000000,,,,0.000000,4.000000,4.000000,4.000000,4.000000,4.000000,4.000000,4.000000,4.000000,4.000000,4.000000,4.000000,4.000000,4.000000,4.000000,100.000000,,,,,,,,,,,,,,,,,,,,,,,,,,,,,,,,,,,,,,,,,,,,,,,,,,,,,,,,,,,,,,,,,,,,,,,,,,,,,,,,,,
1607645969.158375,100.000000,0.000000,4214.743652,4209.871582,4216.538574,4200.000000,4213.077148,4213.077148,4208.077148,4217.563965,4211.153809,4206.922852,4223.333496,4211.922852,4206.922852,4215.897461,3006.000000,4.000000,,,,0.000000,4.000000,4.000000,4.000000,4.000000,4.000000,4.000000,4.000000,4.000000,4.000000,4.000000,4.000000,4.000000,4.000000,4.000000,100.000000,25.000000,0.000000,0.579491,0.100098,-0.795410,0.146606,0.982925,-0.130861,-0.290044,-20.486763,-155.669495,-12.411689,,,,,,,,,,,,,,,,,,,,,,,,,,,,,,,,,,,,,,,,,,,,,,,,,,,,,,,,,,,,,,,,,,,,,,
1607645969.166171,101.000000,0.000000,4220.256348,4221.538574,4220.512695,4202.948730,4217.307617,4214.358887,4207.692383,4217.692383,4214.358887,4215.897461,4231.794922,4209.230957,4210.897461,4219.487305,1298.000000,4.000000,,,,0.000000,4.000000,4.000000,4.000000,4.000000,4.000000,4.000000,4.000000,4.000000,4.000000,4.000000,4.000000,4.000000,4.000000,4.000000,100.000000,,,,,,,,,,,,,,,,,,,,,,,,,,,,,,,,,,,,,,,,,,,,,,,,,,,,,,,,,,,,,,,,,,,,,,,,,,,,,,,,,,
1607645969.173968,102.000000,0.000000,4214.358887,4214.743652,4213.846191,4202.692383,4215.769043,4215.256348,4206.794922,4214.487305,4211.282227,4213.589844,4230.384766,4206.794922,4211.282227,4217.179688,3566.000000,4.000000,,,,0.000000,4.000000,4.000000,4.000000,4.000000,4.000000,4.000000,4.000000,4.000000,4.000000,4.000000,4.000000,4.000000,4.000000,4.000000,100.000000,,,,,,,,,,,,,,,,,,,,,,,,,,,,,,,,,,,,,,,,,,,,,,,,,,,,,,,,,,,,,,,,,,,,,,,,,,,,,,,,,,
1607645969.181664,103.000000,0.000000,4212.820313,4206.538574,4217.179688,4202.307617,4209.487305,4217.563965,4208.333496,4214.871582,4211.282227,4213.846191,4226.666504,4213.717773,4211.410156,4220.897461,3479.000000,4.000000,,,,0.000000,4.000000,4.000000,4.000000,4.000000,4.000000,4.000000,4.000000,4.000000,4.000000,4.000000,4.000000,4.000000,4.000000,4.000000,100.000000,,,,,,,,,,,,,,,,,,,,,,,,,,,,,,,,,,,,,,,,,,,,,,,,,,,,,,,,,,,,,,,,,,,,,,,,,,,,,,,,,,
1607645969.189460,104.000000,0.000000,4224.358887,4222.948730,4227.051270,4204.871582,4214.743652,4217.051270,4208.974121,4219.487305,4219.743652,4223.846191,4232.307617,4216.922852,4216.153809,4229.487305,3006.000000,4.000000,,,,0.000000,4.000000,4.000000,4.000000,4.000000,4.000000,4.000000,4.000000,4.000000,4.000000,4.000000,4.000000,4.000000,4.000000,4.000000,100.000000,26.000000,0.000000,0.579993,0.099365,-0.795349,0.145447,0.997574,-0.103517,-0.283207,-20.935377,-153.725494,-11.963073,,,,,,,,,,,,,,,,,,,,,,,,,,,,,,,,,,,,,,,,,,,,,,,,,,,,,,,,,,,,,,,,,,,,,,
1607645969.197257,105.000000,0.000000,4230.256348,4232.179688,4225.769043,4205.512695,4218.077148,4218.589844,4207.820313,4219.102539,4221.410156,4226.153809,4236.410156,4215.384766,4222.179688,4231.410156,1298.000000,4.000000,,,,0.000000,4.000000,4.000000,4.000000,4.000000,4.000000,4.000000,4.000000,4.000000,4.000000,4.000000,4.000000,4.000000,4.000000,4.000000,100.000000,,,,,,,,,,,,,,,,,,,,,,,,,,,,,,,,,,,,,,,,,,,,,,,,,,,,,,,,,,,,,,,,,,,,,,,,,,,,,,,,,,
1607645969.205053,106.000000,0.000000,4222.948730,4211.922852,4217.436035,4202.948730,4217.820313,4216.282227,4205.000000,4214.487305,4215.000000,4219.615234,4229.102539,4216.153809,4220.769043,4226.538574,3566.000000,4.000000,,,,0.000000,4.000000,4.000000,4.000000,4.000000,4.000000,4.000000,4.000000,4.000000,4.000000,4.000000,4.000000,4.000000,4.000000,4.000000,100.000000,,,,,,,,,,,,,2.086437,2.413296,1.060674,0.206681,0.108047,1.931420,1.937910,0.906677,0.610681,0.344639,1.372112,1.662421,0.688927,0.113739,0.107425,1.175830,1.103546,0.698715,0.107402,0.119853,1.814307,2.010897,0.632871,0.184915,0.177802,1.283080,1.119738,0.463754,0.108453,0.093955,0.458168,0.331352,0.282740,0.077271,0.071254,1.157861,1.171833,0.620934,0.108196,0.087206,2.493977,2.153175,1.106432,0.332771,0.141276,3.154335,3.436986,1.626638,0.371303,0.174033,1.738873,1.779891,0.826238,0.144329,0.115122,0.274753,0.315882,0.164269,0.083335,0.045264,2.685750,3.777696,1.973107,0.442295,0.196150,1.734124,2.413743,1.102151,0.299508,0.088795
1607645969.212849,107.000000,0.000000,4215.128418,4199.102539,4213.974121,4202.051270,4215.384766,4207.179688,4202.436035,4213.333496,4212.436035,4215.897461,4220.256348,4216.025879,4214.230957,4222.179688,3479.000000,4.000000,,,,0.000000,4.000000,4.000000,4.000000,4.000000,4.000000,4.000000,4.000000,4.000000,4.000000,4.000000,4.000000,4.000000,4.000000,4.000000,100.000000,,,,,,,,,,,,,,,,,,,,,,,,,,,,,,,,,,,,,,,,,,,,,,,,,,,,,,,,,,,,,,,,,,,,,,,,,,,,,,,,,,
1607645969.220645,108.000000,0.000000,4214.358887,4214.743652,4215.641113,4200.512695,4204.871582,4201.794922,4200.641113,4212.563965,4212.307617,4214.743652,4217.948730,4213.461426,4214.871582,4221.666504,3006.000000,4.000000,,,,0.000000,4.000000,4.000000,4.000000,4.000000,4.000000,4.000000,4.000000,4.000000,4.000000,4.000000,4.000000,4.000000,4.000000,4.000000,100.000000,27.000000,0.000000,0.580502,0.099365,-0.795288,0.143738,0.987320,-0.113771,-0.287602,-20.636301,-155.819031,-13.009842,,,,,,,,,,,,,,,,,,,,,,,,,,,,,,,,,,,,,,,,,,,,,,,,,,,,,,,,,,,,,,,,,,,,,,
1607645969.228442,109.000000,0.000000,4213.974121,4222.948730,4216.153809,4198.077148,4202.563965,4202.179688,4202.179688,4207.436035,4206.282227,4211.794922,4219.358887,4211.282227,4219.102539,4222.307617,1298.000000,4.000000,,,,0.000000,4.000000,4.000000,4.000000,4.000000,4.000000,4.000000,4.000000,4.000000,4.000000,4.000000,4.000000,4.000000,4.000000,4.000000,100.000000,,,,,,,,,,,,,,,,,,,,,,,,,,,,,,,,,,,,,,,,,,,,,,,,,,,,,,,,,,,,,,,,,,,,,,,,,,,,,,,,,,
1607645969.236238,110.000000,0.000000,4207.179688,4209.615234,4212.820313,4200.128418,4211.794922,4201.153809,4202.436035,4202.692383,4199.615234,4208.846191,4218.974121,4209.871582,4214.358887,4217.820313,3566.000000,4.000000,,,,0.000000,4.000000,4.000000,4.000000,4.000000,4.000000,4.000000,4.000000,4.000000,4.000000,4.000000,4.000000,4.000000,4.000000,4.000000,100.000000,,,,,,,,,,,,,,,,,,,,,,,,,,,,,,,,,,,,,,,,,,,,,,,,,,,,,,,,,,,,,,,,,,,,,,,,,,,,,,,,,,
1607645969.243934,111.000000,0.000000,4204.358887,4208.333496,4209.743652,4201.666504,4207.307617,4198.589844,4198.461426,4200.000000,4198.589844,4203.333496,4217.692383,4209.230957,4203.205078,4212.436035,3479.000000,4.000000,,,,0.000000,4.000000,4.000000,4.000000,4.000000,4.000000,4.000000,4.000000,4.000000,4.000000,4.000000,4.000000,4.000000,4.000000,4.000000,100.000000,,,,,,,,,,,,,,,,,,,,,,,,,,,,,,,,,,,,,,,,,,,,,,,,,,,,,,,,,,,,,,,,,,,,,,,,,,,,,,,,,,
1607645969.251731,112.000000,0.000000,4208.333496,4218.461426,4206.922852,4198.461426,4197.051270,4200.128418,4195.769043,4197.820313,4196.282227,4198.205078,4211.538574,4208.974121,4199.615234,4210.384766,3006.000000,4.000000,,,,0.000000,4.000000,4.000000,4.000000,4.000000,4.000000,4.000000,4.000000,4.000000,4.000000,4.000000,4.000000,4.000000,4.000000,4.000000,100.000000,28.000000,0.000000,0.580524,0.099792,-0.795471,0.142334,0.984878,-0.106447,-0.296880,-20.187687,-155.819031,-13.308919,,,,,,,,,,,,,,,,,,,,,,,,,,,,,,,,,,,,,,,,,,,,,,,,,,,,,,,,,,,,,,,,,,,,,,
1607645969.259527,113.000000,0.000000,4208.333496,4215.128418,4204.487305,4197.051270,4204.871582,4201.410156,4200.512695,4197.307617,4190.000000,4198.205078,4204.358887,4210.128418,4202.563965,4208.717773,1298.000000,4.000000,,,,0.000000,4.000000,4.000000,4.000000,4.000000,4.000000,4.000000,4.000000,4.000000,4.000000,4.000000,4.000000,4.000000,4.000000,4.000000,100.000000,,,,,,,,,,,,,,,,,,,,,,,,,,,,,,,,,,,,,,,,,,,,,,,,,,,,,,,,,,,,,,,,,,,,,,,,,,,,,,,,,,
1607645969.267323,114.000000,0.000000,4207.307617,4209.615234,4206.410156,4199.871582,4212.307617,4200.641113,4202.179688,4197.051270,4191.794922,4198.974121,4206.666504,4214.743652,4204.615234,4212.948730,3566.000000,4.000000,,,,0.000000,4.000000,4.000000,4.000000,4.000000,4.000000,4.000000,4.000000,4.000000,4.000000,4.000000,4.000000,4.000000,4.000000,4.000000,100.000000,,,,,,,,,,,,,,,,,,,,,,,,,,,,,,,,,,,,,,,,,,,,,,,,,,,,,,,,,,,,,,,,,,,,,,,,,,,,,,,,,,
1607645969.275120,115.000000,0.000000,4215.512695,4218.589844,4212.307617,4200.769043,4206.666504,4201.794922,4201.922852,4201.538574,4201.922852,4203.846191,4208.461426,4214.615234,4209.358887,4218.461426,3479.000000,4.000000,,,,0.000000,4.000000,4.000000,4.000000,4.000000,4.000000,4.000000,4.000000,4.000000,4.000000,4.000000,4.000000,4.000000,4.000000,4.000000,100.000000,,,,,,,,,,,,,,,,,,,,,,,,,,,,,,,,,,,,,,,,,,,,,,,,,,,,,,,,,,,,,,,,,,,,,,,,,,,,,,,,,,
1607645969.282916,116.000000,0.000000,4216.153809,4224.615234,4211.666504,4198.717773,4207.051270,4202.179688,4205.000000,4207.820313,4204.102539,4209.358887,4201.153809,4208.974121,4211.025879,4215.769043,3006.000000,4.000000,,,,0.000000,4.000000,4.000000,4.000000,4.000000,4.000000,4.000000,4.000000,4.000000,4.000000,4.000000,4.000000,4.000000,4.000000,4.000000,100.000000,29.000000,0.000000,0.580481,0.100281,-0.795593,0.141479,0.971695,-0.094240,-0.300786,-20.935377,-155.669495,-11.963073,,,,,,,,,,,,,,,,,,,,,,,,,,,,,,,,,,,,,,,,,,,,,,,,,,,,,,,,,,,,,,,,,,,,,,
1607645969.290712,117.000000,0.000000,4205.128418,4217.820313,4207.179688,4198.461426,4217.948730,4200.000000,4204.358887,4206.153809,4200.128418,4207.563965,4198.333496,4209.230957,4203.846191,4214.871582,1298.000000,4.000000,,,,0.000000,4.000000,4.000000,4.000000,4.000000,4.000000,4.000000,4.000000,4.000000,4.000000,4.000000,4.000000,4.000000,4.000000,4.000000,100.000000,,,,,,,,,,,,,,,,,,,,,,,,,,,,,,,,,,,,,,,,,,,,,,,,,,,,,,,,,,,,,,,,,,,,,,,,,,,,,,,,,,
1607645969.298508,118.000000,0.000000,4204.230957,4213.461426,4209.615234,4198.846191,4219.615234,4206.282227,4203.846191,4205.897461,4205.512695,4206.153809,4200.256348,4212.179688,4201.922852,4217.692383,3566.000000,4.000000,,,,0.000000,4.000000,4.000000,4.000000,4.000000,4.000000,4.000000,4.000000,4.000000,4.000000,4.000000,4.000000,4.000000,4.000000,4.000000,100.000000,,,,,,,,,,,,,,,,,,,,,,,,,,,,,,,,,,,,,,,,,,,,,,,,,,,,,,,,,,,,,,,,,,,,,,,,,,,,,,,,,,
1607645969.306305,119.000000,0.000000,4212.820313,4218.205078,4214.487305,4199.871582,4216.538574,4219.230957,4211.153809,4215.384766,4214.871582,4215.000000,4199.743652,4213.717773,4212.436035,4217.948730,3479.000000,4.000000,,,,0.000000,4.000000,4.000000,4.000000,4.000000,4.000000,4.000000,4.000000,4.000000,4.000000,4.000000,4.000000,4.000000,4.000000,4.000000,100.000000,,,,,,,,,,,,,,,,,,,,,,,,,,,,,,,,,,,,,,,,,,,,,,,,,,,,,,,,,,,,,,,,,,,,,,,,,,,,,,,,,,
1607645969.314001,120.000000,0.000000,4215.897461,4222.820313,4216.025879,4201.538574,4223.205078,4219.230957,4214.615234,4219.102539,4219.230957,4226.153809,4201.794922,4214.743652,4223.077148,4218.974121,3006.000000,4.000000,,,,0.000000,4.000000,4.000000,4.000000,4.000000,4.000000,4.000000,4.000000,4.000000,4.000000,4.000000,4.000000,4.000000,4.000000,4.000000,100.000000,30.000000,0.000000,0.581170,0.098938,-0.795410,0.140625,0.978042,-0.109377,-0.291997,-20.935377,-155.669495,-13.458457,,,,,,,,,,,,,,,,,,,,,,,,,,,,,,,,,,,,,,,,,,,,,,,,,,,,,,,,,,,,,,,,,,,,,,
1607645969.321797,121.000000,0.000000,4209.358887,4218.205078,4212.051270,4200.128418,4223.333496,4212.948730,4208.589844,4214.230957,4216.794922,4225.128418,4202.692383,4215.384766,4217.307617,4216.538574,1298.000000,4.000000,,,,0.000000,4.000000,4.000000,4.000000,4.000000,4.000000,4.000000,4.000000,4.000000,4.000000,4.000000,4.000000,4.000000,4.000000,4.000000,100.000000,,,,,,,,,,,,,,,,,,,,,,,,,,,,,,,,,,,,,,,,,,,,,,,,,,,,,,,,,,,,,,,,,,,,,,,,,,,,,,,,,,
1607645969.329594,122.000000,0.000000,4202.051270,4210.769043,4205.897461,4196.153809,4213.077148,4216.025879,4204.487305,4213.974121,4210.769043,4217.692383,4198.717773,4212.179688,4202.563965,4211.153809,3566.000000,4.000000,,,,0.000000,4.000000,4.000000,4.000000,4.000000,4.000000,4.000000,4.000000,4.000000,4.000000,4.000000,4.000000,4.000000,4.000000,4.000000,100.000000,,,,,,,,,,,,,2.453044,2.987811,1.110871,0.195610,0.101390,2.427897,2.316169,0.917283,0.599230,0.330205,1.690261,2.023397,0.648219,0.097456,0.106970,1.540354,1.312307,0.754150,0.112421,0.128738,2.269122,2.414687,0.708582,0.187646,0.175692,1.550176,1.305151,0.544376,0.091814,0.092295,0.502069,0.358263,0.287610,0.081612,0.076072,1.394629,1.320760,0.640115,0.106432,0.095868,3.100868,2.455508,1.159532,0.314201,0.149916,4.100833,4.021107,1.657397,0.367550,0.178050,1.957067,2.165427,0.897093,0.151380,0.114785,0.364841,0.381815,0.172716,0.082526,0.042810,3.273920,4.375777,1.960549,0.447298,0.203867,2.181588,2.939275,1.153929,0.287008,0.096902
1607645969.337390,123.000000,0.000000,4202.820313,4207.051270,4203.717773,4197.179688,4210.897461,4218.077148,4209.487305,4212.307617,4212.051270,4216.282227,4198.974121,4211.025879,4200.256348,4210.769043,3479.000000,4.000000,,,,0.000000,4.000000,4.000000,4.000000,4.000000,4.000000,4.000000,4.000000,4.000000,4.000000,4.000000,4.000000,4.000000,4.000000,4.000000,100.000000,,,,,,,,,,,,,,,,,,,,,,,,,,,,,,,,,,,,,,,,,,,,,,,,,,,,,,,,,,,,,,,,,,,,,,,,,,,,,,,,,,
1607645969.345186,124.000000,0.000000,4205.641113,4203.717773,4204.358887,4200.512695,4215.897461,4215.128418,4212.563965,4209.358887,4215.641113,4218.205078,4200.384766,4212.179688,4210.000000,4212.179688,3006.000000,4.000000,,,,0.000000,4.000000,4.000000,4.000000,4.000000,4.000000,4.000000,4.000000,4.000000,4.000000,4.000000,4.000000,4.000000,4.000000,4.000000,100.000000,31.000000,0.000000,0.581687,0.098206,-0.795166,0.140381,0.998550,-0.127932,-0.293462,-19.888609,-154.772263,-11.813535,,,,,,,,,,,,,,,,,,,,,,,,,,,,,,,,,,,,,,,,,,,,,,,,,,,,,,,,,,,,,,,,,,,,,,
1607645969.352983,125.000000,0.000000,4204.743652,4201.794922,4204.230957,4195.128418,4211.410156,4216.922852,4209.102539,4209.743652,4214.743652,4217.563965,4200.769043,4210.256348,4214.230957,4212.307617,1298.000000,4.000000,,,,0.000000,4.000000,4.000000,4.000000,4.000000,4.000000,4.000000,4.000000,4.000000,4.000000,4.000000,4.000000,4.000000,4.000000,4.000000,100.000000,,,,,,,,,,,,,,,,,,,,,,,,,,,,,,,,,,,,,,,,,,,,,,,,,,,,,,,,,,,,,,,,,,,,,,,,,,,,,,,,,,
1607645969.360779,126.000000,0.000000,4204.743652,4201.922852,4203.077148,4189.487305,4204.743652,4219.615234,4204.871582,4210.384766,4213.205078,4217.051270,4201.666504,4206.922852,4208.333496,4213.589844,3566.000000,4.000000,,,,0.000000,4.000000,4.000000,4.000000,4.000000,4.000000,4.000000,4.000000,4.000000,4.000000,4.000000,4.000000,4.000000,4.000000,4.000000,100.000000,,,,,,,,,,,,,,,,,,,,,,,,,,,,,,,,,,,,,,,,,,,,,,,,,,,,,,,,,,,,,,,,,,,,,,,,,,,,,,,,,,
1607645969.368575,127.000000,0.000000,4203.589844,4207.563965,4206.538574,4194.487305,4212.051270,4217.436035,4208.589844,4211.922852,4213.846191,4217.563965,4200.256348,4203.846191,4204.487305,4212.948730,58.000000,4.000000,,,,0.000000,4.000000,4.000000,4.000000,4.000000,4.000000,4.000000,4.000000,4.000000,4.000000,4.000000,4.000000,4.000000,4.000000,4.000000,100.000000,,,,,,,,,,,,,,,,,,,,,,,,,,,,,,,,,,,,,,,,,,,,,,,,,,,,,,,,,,,,,,,,,,,,,,,,,,,,,,,,,,
1607645969.376371,0.000000,0.000000,4200.641113,4218.205078,4212.692383,4199.102539,4217.820313,4219.358887,4216.410156,4218.974121,4217.692383,4218.077148,4202.692383,4206.025879,4207.563965,4211.410156,2929.000000,4.000000,,,,0.000000,4.000000,4.000000,4.000000,4.000000,4.000000,4.000000,4.000000,4.000000,4.000000,4.000000,4.000000,4.000000,4.000000,4.000000,100.000000,0.000000,0.000000,0.582607,0.096802,-0.794922,0.138916,0.980484,-0.115724,-0.280278,-21.234455,-155.370407,-12.411689,,,,,,,,,,,,,,,,,,,,,,,,,,,,,,,,,,,,,,,,,,,,,,,,,,,,,,,,,,,,,,,,,,,,,,
1607645969.384068,1.000000,0.000000,4208.717773,4213.333496,4216.410156,4198.333496,4214.102539,4223.461426,4217.563965,4227.051270,4226.922852,4226.538574,4213.461426,4214.487305,4216.410156,4215.641113,2241.000000,4.000000,,,,0.000000,4.000000,4.000000,4.000000,4.000000,4.000000,4.000000,4.000000,4.000000,4.000000,4.000000,4.000000,4.000000,4.000000,4.000000,100.000000,,,,,,,,,,,,,,,,,,,,,,,,,,,,,,,,,,,,,,,,,,,,,,,,,,,,,,,,,,,,,,,,,,,,,,,,,,,,,,,,,,
1607645969.391864,2.000000,0.000000,4218.205078,4199.743652,4217.820313,4202.307617,4215.641113,4224.358887,4215.128418,4226.922852,4235.384766,4234.102539,4219.615234,4216.282227,4221.282227,4220.256348,3463.000000,4.000000,,,,0.000000,4.000000,4.000000,4.000000,4.000000,4.000000,4.000000,4.000000,4.000000,4.000000,4.000000,4.000000,4.000000,4.000000,4.000000,100.000000,,,,,,,,,,,,,,,,,,,,,,,,,,,,,,,,,,,,,,,,,,,,,,,,,,,,,,,,,,,,,,,,,,,,,,,,,,,,,,,,,,
1607645969.399660,3.000000,0.000000,4216.794922,4205.128418,4217.692383,4204.615234,4220.897461,4221.922852,4213.205078,4219.487305,4230.641113,4231.410156,4215.769043,4208.846191,4216.282227,4218.205078,3407.000000,4.000000,,,,0.000000,4.000000,4.000000,4.000000,4.000000,4.000000,4.000000,4.000000,4.000000,4.000000,4.000000,4.000000,4.000000,4.000000,4.000000,100.000000,,,,,,,,,,,,,,,,,,,,,,,,,,,,,,,,,,,,,,,,,,,,,,,,,,,,,,,,,,,,,,,,,,,,,,,,,,,,,,,,,,
1607645969.407456,4.000000,0.000000,4214.358887,4220.256348,4216.282227,4198.333496,4214.230957,4221.153809,4214.615234,4216.282227,4221.794922,4228.717773,4214.102539,4208.461426,4212.692383,4217.692383,3641.000000,4.000000,,,,0.000000,4.000000,4.000000,4.000000,4.000000,4.000000,4.000000,4.000000,4.000000,4.000000,4.000000,4.000000,4.000000,4.000000,4.000000,100.000000,1.000000,0.000000,0.583562,0.095764,-0.794739,0.136658,0.994156,-0.101564,-0.285161,-21.832609,-155.071335,-11.364920,,,,,,,,,,,,,,,,,,,,,,,,,,,,,,,,,,,,,,,,,,,,,,,,,,,,,,,,,,,,,,,,,,,,,,
1607645969.415252,5.000000,0.000000,4217.436035,4223.717773,4216.794922,4196.410156,4209.487305,4224.102539,4215.641113,4224.358887,4223.589844,4231.153809,4216.282227,4214.871582,4216.410156,4222.820313,3318.000000,4.000000,,,,0.000000,4.000000,4.000000,4.000000,4.000000,4.000000,4.000000,4.000000,4.000000,4.000000,4.000000,4.000000,4.000000,4.000000,4.000000,100.000000,,,,,,,,,,,,,,,,,,,,,,,,,,,,,,,,,,,,,,,,,,,,,,,,,,,,,,,,,,,,,,,,,,,,,,,,,,,,,,,,,,
1607645969.422948,6.000000,0.000000,4219.358887,4218.333496,4218.461426,4203.205078,4218.589844,4227.051270,4215.384766,4232.820313,4232.051270,4232.051270,4216.794922,4216.025879,4217.820313,4223.333496,2003.000000,4.000000,,,,0.000000,4.000000,4.000000,4.000000,4.000000,4.000000,4.000000,4.000000,4.000000,4.000000,4.000000,4.000000,4.000000,4.000000,4.000000,100.000000,,,,,,,,,,,,,,,,,,,,,,,,,,,,,,,,,,,,,,,,,,,,,,,,,,,,,,,,,,,,,,,,,,,,,,,,,,,,,,,,,,
1607645969.430744,7.000000,0.000000,4216.666504,4214.358887,4215.384766,4206.282227,4221.794922,4229.487305,4216.282227,4232.307617,4233.205078,4232.307617,4216.794922,4210.512695,4215.512695,4219.358887,3114.000000,4.000000,,,,0.000000,4.000000,4.000000,4.000000,4.000000,4.000000,4.000000,4.000000,4.000000,4.000000,4.000000,4.000000,4.000000,4.000000,4.000000,100.000000,,,,,,,,,,,,,,,,,,,,,,,,,,,,,,,,,,,,,,,,,,,,,,,,,,,,,,,,,,,,,,,,,,,,,,,,,,,,,,,,,,
1607645969.438439,8.000000,0.000000,4213.589844,4215.384766,4216.282227,4203.077148,4217.051270,4231.025879,4215.769043,4223.846191,4224.743652,4230.256348,4212.820313,4209.358887,4217.051270,4220.128418,3465.000000,4.000000,,,,0.000000,4.000000,4.000000,4.000000,4.000000,4.000000,4.000000,4.000000,4.000000,4.000000,4.000000,4.000000,4.000000,4.000000,4.000000,100.000000,2.000000,0.000000,0.584178,0.095276,-0.794678,0.134705,0.994156,-0.088869,-0.283207,-20.636301,-155.071335,-14.056611,,,,,,,,,,,,,,,,,,,,,,,,,,,,,,,,,,,,,,,,,,,,,,,,,,,,,,,,,,,,,,,,,,,,,,
1607645969.446235,9.000000,0.000000,4216.410156,4222.692383,4217.436035,4205.128418,4223.077148,4228.717773,4214.743652,4215.256348,4216.153809,4225.512695,4208.461426,4213.461426,4217.436035,4224.743652,3629.000000,4.000000,,,,0.000000,4.000000,4.000000,4.000000,4.000000,4.000000,4.000000,4.000000,4.000000,4.000000,4.000000,4.000000,4.000000,4.000000,4.000000,100.000000,,,,,,,,,,,,,,,,,,,,,,,,,,,,,,,,,,,,,,,,,,,,,,,,,,,,,,,,,,,,,,,,,,,,,,,,,,,,,,,,,,
1607645969.453932,10.000000,0.000000,4230.641113,4227.051270,4216.153809,4213.974121,4229.743652,4224.102539,4214.615234,4216.410156,4215.000000,4228.461426,4207.820313,4214.871582,4215.384766,4228.717773,3570.000000,4.000000,,,,0.000000,4.000000,4.000000,4.000000,4.000000,4.000000,4.000000,4.000000,4.000000,4.000000,4.000000,4.000000,4.000000,4.000000,4.000000,100.000000,,,,,,,,,,,,,2.881619,3.281728,1.068000,0.192943,0.098677,2.891822,2.525393,0.904689,0.564843,0.313627,1.952047,2.187149,0.579272,0.092205,0.112749,1.879638,1.424979,0.742062,0.118632,0.131980,2.713568,2.641150,0.749725,0.178696,0.181242,1.779440,1.428450,0.582898,0.083546,0.088812,0.518409,0.367312,0.276910,0.088346,0.079791,1.591074,1.410889,0.623289,0.101806,0.104837,3.679255,2.602739,1.137502,0.285633,0.161053,5.063818,4.269675,1.546265,0.351146,0.182117,2.268157,2.353626,0.883619,0.159292,0.117155,0.461953,0.413416,0.168694,0.074825,0.039631,3.885551,4.556942,1.792614,0.425395,0.207114,2.685713,3.199778,1.092868,0.262362,0.106969
1607645969.461728,11.000000,0.000000,4248.333496,4224.487305,4224.615234,4218.846191,4229.230957,4226.538574,4215.769043,4219.743652,4222.692383,4234.743652,4212.051270,4215.128418,4222.436035,4232.820313,3481.000000,4.000000,,,,0.000000,4.000000,4.000000,4.000000,4.000000,4.000000,4.000000,4.000000,4.000000,4.000000,4.000000,4.000000,4.000000,4.000000,4.000000,100.000000,,,,,,,,,,,,,,,,,,,,,,,,,,,,,,,,,,,,,,,,,,,,,,,,,,,,,,,,,,,,,,,,,,,,,,,,,,,,,,,,,,
1607645969.469524,12.000000,0.000000,4255.512695,4226.153809,4231.538574,4215.256348,4230.897461,4227.563965,4216.794922,4219.487305,4226.922852,4234.487305,4213.846191,4214.615234,4233.461426,4235.769043,3012.000000,4.000000,,,,0.000000,4.000000,4.000000,4.000000,4.000000,4.000000,4.000000,4.000000,4.000000,4.000000,4.000000,4.000000,4.000000,4.000000,4.000000,100.000000,3.000000,0.000000,0.584559,0.094910,-0.794617,0.133667,0.975601,-0.080568,-0.295415,-20.486763,-154.921799,-11.663997,,,,,,,,,,,,,,,,,,,,,,,,,,,,,,,,,,,,,,,,,,,,,,,,,,,,,,,,,,,,,,,,,,,,,,
1607645969.477320,13.000000,0.000000,4253.461426,4233.333496,4223.461426,4213.077148,4226.410156,4223.717773,4215.256348,4217.307617,4218.974121,4233.077148,4207.692383,4216.025879,4230.000000,4234.487305,1298.000000,4.000000,,,,0.000000,4.000000,4.000000,4.000000,4.000000,4.000000,4.000000,4.000000,4.000000,4.000000,4.000000,4.000000,4.000000,4.000000,4.000000,100.000000,,,,,,,,,,,,,,,,,,,,,,,,,,,,,,,,,,,,,,,,,,,,,,,,,,,,,,,,,,,,,,,,,,,,,,,,,,,,,,,,,,
1607645969.485117,14.000000,0.000000,4250.641113,4230.128418,4215.128418,4213.077148,4215.384766,4223.333496,4211.153809,4212.692383,4211.538574,4227.948730,4199.871582,4217.307617,4214.487305,4227.692383,3570.000000,4.000000,,,,0.000000,4.000000,4.000000,4.000000,4.000000,4.000000,4.000000,4.000000,4.000000,4.000000,4.000000,4.000000,4.000000,4.000000,4.000000,100.000000,,,,,,,,,,,,,,,,,,,,,,,,,,,,,,,,,,,,,,,,,,,,,,,,,,,,,,,,,,,,,,,,,,,,,,,,,,,,,,,,,,
1607645969.492913,15.000000,0.000000,4247.692383,4215.384766,4216.025879,4208.333496,4219.871582,4221.153809,4209.615234,4210.897461,4214.102539,4218.461426,4197.179688,4212.820313,4207.563965,4218.589844,3481.000000,4.000000,,,,0.000000,4.000000,4.000000,4.000000,4.000000,4.000000,4.000000,4.000000,4.000000,4.000000,4.000000,4.000000,4.000000,4.000000,4.000000,100.000000,,,,,,,,,,,,,,,,,,,,,,,,,,,,,,,,,,,,,,,,,,,,,,,,,,,,,,,,,,,,,,,,,,,,,,,,,,,,,,,,,,
1607645969.500709,16.000000,0.000000,4245.897461,4210.512695,4215.384766,4203.589844,4223.205078,4217.179688,4210.897461,4210.384766,4214.615234,4215.256348,4198.974121,4209.102539,4210.897461,4215.512695,0.000000,4.000000,,,,0.000000,4.000000,4.000000,4.000000,4.000000,4.000000,4.000000,4.000000,4.000000,4.000000,4.000000,4.000000,4.000000,4.000000,4.000000,100.000000,4.000000,0.000000,0.584920,0.094910,-0.794556,0.132446,0.995132,-0.077638,-0.280766,-21.084917,-154.323639,-13.757534,,,,,,,,,,,,,,,,,,,,,,,,,,,,,,,,,,,,,,,,,,,,,,,,,,,,,,,,,,,,,,,,,,,,,,
1607645969.508406,17.000000,0.000000,4247.436035,4214.743652,4213.461426,4202.307617,4206.666504,4216.153809,4211.538574,4205.256348,4205.000000,4217.436035,4198.717773,4211.410156,4212.820313,4216.282227,0.000000,4.000000,,,,0.000000,4.000000,4.000000,4.000000,4.000000,4.000000,4.000000,4.000000,4.000000,4.000000,4.000000,4.000000,4.000000,4.000000,4.000000,100.000000,,,,,,,,,,,,,,,,,,,,,,,,,,,,,,,,,,,,,,,,,,,,,,,,,,,,,,,,,,,,,,,,,,,,,,,,,,,,,,,,,,
1607645969.516202,18.000000,0.000000,4248.077148,4217.563965,4216.922852,4201.282227,4204.871582,4216.538574,4213.077148,4206.922852,4204.487305,4215.641113,4197.820313,4213.077148,4213.846191,4215.897461,0.000000,4.000000,,,,0.000000,4.000000,4.000000,4.000000,4.000000,4.000000,4.000000,4.000000,4.000000,4.000000,4.000000,4.000000,4.000000,4.000000,4.000000,100.000000,,,,,,,,,,,,,,,,,,,,,,,,,,,,,,,,,,,,,,,,,,,,,,,,,,,,,,,,,,,,,,,,,,,,,,,,,,,,,,,,,,
1607645969.523998,19.000000,0.000000,4247.051270,4218.717773,4217.820313,4200.512695,4218.717773,4216.025879,4213.077148,4215.384766,4213.461426,4214.102539,4198.461426,4212.563965,4217.436035,4217.563965,0.000000,4.000000,,,,0.000000,4.000000,4.000000,4.000000,4.000000,4.000000,4.000000,4.000000,4.000000,4.000000,4.000000,4.000000,4.000000,4.000000,4.000000,100.000000,,,,,,,,,,,,,,,,,,,,,,,,,,,,,,,,,,,,,,,,,,,,,,,,,,,,,,,,,,,,,,,,,,,,,,,,,,,,,,,,,,
1607645969.531795,20.000000,0.000000,4251.025879,4215.769043,4217.179688,4203.846191,4219.487305,4218.589844,4212.820313,4216.794922,4216.538574,4221.410156,4199.871582,4213.974121,4216.410156,4224.102539,0.000000,4.000000,,,,0.000000,4.000000,4.000000,4.000000,4.000000,4.000000,4.000000,4.000000,4.000000,4.000000,4.000000,4.000000,4.000000,4.000000,4.000000,100.000000,5.000000,0.000000,0.584607,0.095642,-0.794617,0.132935,0.979019,-0.067384,-0.283696,-21.533531,-154.024567,-14.056611,,,,,,,,,,,,,,,,,,,,,,,,,,,,,,,,,,,,,,,,,,,,,,,,,,,,,,,,,,,,,,,,,,,,,,
1607645969.539591,21.000000,0.000000,4257.948730,4215.256348,4222.051270,4204.102539,4215.128418,4218.077148,4214.615234,4215.897461,4215.897461,4231.666504,4200.256348,4215.000000,4213.717773,4229.102539,0.000000,4.000000,,,,0.000000,4.000000,4.000000,4.000000,4.000000,4.000000,4.000000,4.000000,4.000000,4.000000,4.000000,4.000000,4.000000,4.000000,4.000000,100.000000,,,,,,,,,,,,,,,,,,,,,,,,,,,,,,,,,,,,,,,,,,,,,,,,,,,,,,,,,,,,,,,,,,,,,,,,,,,,,,,,,,
1607645969.547387,22.000000,0.000000,4261.922852,4226.282227,4229.615234,4203.205078,4215.512695,4215.897461,4211.922852,4218.333496,4217.948730,4234.615234,4199.487305,4216.410156,4224.230957,4230.641113,0.000000,4.000000,,,,0.000000,4.000000,4.000000,4.000000,4.000000,4.000000,4.000000,4.000000,4.000000,4.000000,4.000000,4.000000,4.000000,4.000000,4.000000,100.000000,,,,,,,,,,,,,,,,,,,,,,,,,,,,,,,,,,,,,,,,,,,,,,,,,,,,,,,,,,,,,,,,,,,,,,,,,,,,,,,,,,
1607645969.555183,23.000000,0.000000,4263.077148,4232.436035,4229.358887,4208.461426,4217.820313,4219.102539,4212.179688,4217.563965,4218.846191,4230.897461,4200.897461,4217.307617,4234.358887,4233.589844,0.000000,4.000000,,,,0.000000,4.000000,4.000000,4.000000,4.000000,4.000000,4.000000,4.000000,4.000000,4.000000,4.000000,4.000000,4.000000,4.000000,4.000000,100.000000,,,,,,,,,,,,,,,,,,,,,,,,,,,,,,,,,,,,,,,,,,,,,,,,,,,,,,,,,,,,,,,,,,,,,,,,,,,,,,,,,,
1607645969.562980,24.000000,0.000000,4258.589844,4222.179688,4220.641113,4209.615234,4220.641113,4219.358887,4214.871582,4215.128418,4217.563965,4225.384766,4197.436035,4214.871582,4226.666504,4233.974121,0.000000,4.000000,,,,0.000000,4.000000,4.000000,4.000000,4.000000,4.000000,4.000000,4.000000,4.000000,4.000000,4.000000,4.000000,4.000000,4.000000,4.000000,100.000000,6.000000,0.000000,0.583849,0.096436,-0.794739,0.134949,0.968765,-0.090333,-0.294926,-20.636301,-155.071335,-11.364920,,,,,,,,,,,,,,,,,,,,,,,,,,,,,,,,,,,,,,,,,,,,,,,,,,,,,,,,,,,,,,,,,,,,,,
1607645969.570676,25.000000,0.000000,4246.922852,4210.000000,4214.230957,4202.307617,4214.358887,4214.871582,4206.922852,4212.692383,4213.846191,4219.871582,4188.589844,4214.358887,4213.461426,4224.230957,0.000000,4.000000,,,,0.000000,4.000000,4.000000,4.000000,4.000000,4.000000,4.000000,4.000000,4.000000,4.000000,4.000000,4.000000,4.000000,4.000000,4.000000,100.000000,,,,,,,,,,,,,,,,,,,,,,,,,,,,,,,,,,,,,,,,,,,,,,,,,,,,,,,,,,,,,,,,,,,,,,,,,,,,,,,,,,
1607645969.578473,26.000000,0.000000,4240.512695,4210.000000,4212.820313,4197.436035,4202.820313,4210.769043,4202.563965,4210.641113,4208.333496,4216.410156,4184.615234,4213.589844,4212.051270,4215.256348,0.000000,4.000000,,,,0.000000,4.000000,4.000000,4.000000,4.000000,4.000000,4.000000,4.000000,4.000000,4.000000,4.000000,4.000000,4.000000,4.000000,4.000000,100.000000,,,,,,,,,,,,,3.224040,3.195277,0.939191,0.188886,0.101887,3.172946,2.472874,0.848840,0.517495,0.305467,2.080937,2.089114,0.487077,0.096536,0.122855,2.104275,1.382553,0.655911,0.121979,0.127301,3.026599,2.586240,0.733917,0.159543,0.193433,1.955219,1.438503,0.568688,0.082595,0.083058,0.513417,0.349236,0.248613,0.092933,0.082488,1.706164,1.392104,0.565875,0.094902,0.111337,4.109230,2.512449,1.028768,0.250077,0.172696,5.811840,4.094662,1.303062,0.321393,0.185003,2.612946,2.263794,0.784762,0.166080,0.121554,0.544480,0.403037,0.156428,0.062314,0.037729,4.350334,4.241618,1.493731,0.379790,0.206602,3.101966,3.097406,0.922069,0.228492,0.116860
1607645969.586269,27.000000,0.000000,4240.384766,4212.692383,4213.077148,4197.820313,4202.692383,4205.641113,4210.000000,4205.769043,4202.307617,4210.128418,4185.256348,4211.922852,4208.846191,4214.358887,0.000000,4.000000,,,,0.000000,4.000000,4.000000,4.000000,4.000000,4.000000,4.000000,4.000000,4.000000,4.000000,4.000000,4.000000,4.000000,4.000000,4.000000,100.000000,,,,,,,,,,,,,,,,,,,,,,,,,,,,,,,,,,,,,,,,,,,,,,,,,,,,,,,,,,,,,,,,,,,,,,,,,,,,,,,,,,
1607645969.594066,28.000000,0.000000,4242.820313,4212.692383,4213.974121,4198.205078,4202.179688,4199.487305,4207.820313,4201.922852,4200.512695,4205.641113,4186.282227,4213.205078,4202.436035,4215.256348,0.000000,4.000000,,,,0.000000,4.000000,4.000000,4.000000,4.000000,4.000000,4.000000,4.000000,4.000000,4.000000,4.000000,4.000000,4.000000,4.000000,4.000000,100.000000,7.000000,0.000000,0.582856,0.097351,-0.794800,0.138184,0.970230,-0.110842,-0.279789,-21.234455,-156.118103,-13.907073,,,,,,,,,,,,,,,,,,,,,,,,,,,,,,,,,,,,,,,,,,,,,,,,,,,,,,,,,,,,,,,,,,,,,,
1607645969.601862,29.000000,0.000000,4243.461426,4209.487305,4214.615234,4200.256348,4197.820313,4198.461426,4205.897461,4208.974121,4205.512695,4209.743652,4187.179688,4215.512695,4206.153809,4214.615234,0.000000,4.000000,,,,0.000000,4.000000,4.000000,4.000000,4.000000,4.000000,4.000000,4.000000,4.000000,4.000000,4.000000,4.000000,4.000000,4.000000,4.000000,100.000000,,,,,,,,,,,,,,,,,,,,,,,,,,,,,,,,,,,,,,,,,,,,,,,,,,,,,,,,,,,,,,,,,,,,,,,,,,,,,,,,,,
1607645969.609659,30.000000,0.000000,4235.384766,4203.205078,4212.179688,4200.897461,4201.282227,4201.666504,4212.051270,4211.794922,4206.410156,4205.897461,4184.358887,4213.333496,4201.922852,4209.102539,0.000000,4.000000,,,,0.000000,4.000000,4.000000,4.000000,4.000000,4.000000,4.000000,4.000000,4.000000,4.000000,4.000000,4.000000,4.000000,4.000000,4.000000,100.000000,,,,,,,,,,,,,,,,,,,,,,,,,,,,,,,,,,,,,,,,,,,,,,,,,,,,,,,,,,,,,,,,,,,,,,,,,,,,,,,,,,
1607645969.617456,31.000000,0.000000,4226.666504,4197.051270,4208.717773,4199.358887,4200.641113,4205.384766,4212.692383,4199.230957,4198.205078,4191.794922,4180.512695,4207.820313,4187.307617,4199.871582,0.000000,4.000000,,,,0.000000,4.000000,4.000000,4.000000,4.000000,4.000000,4.000000,4.000000,4.000000,4.000000,4.000000,4.000000,4.000000,4.000000,4.000000,100.000000,,,,,,,,,,,,,,,,,,,,,,,,,,,,,,,,,,,,,,,,,,,,,,,,,,,,,,,,,,,,,,,,,,,,,,,,,,,,,,,,,,
1607645969.625252,32.000000,0.000000,4228.589844,4200.256348,4211.538574,4202.179688,4200.641113,4208.846191,4209.358887,4197.307617,4199.102539,4192.307617,4183.461426,4205.128418,4190.000000,4201.282227,0.000000,4.000000,,,,0.000000,4.000000,4.000000,4.000000,4.000000,4.000000,4.000000,4.000000,4.000000,4.000000,4.000000,4.000000,4.000000,4.000000,4.000000,100.000000,8.000000,0.000000,0.582183,0.097229,-0.794739,0.141418,0.977554,-0.144045,-0.294438,-21.533531,-156.267639,-13.009842,,,,,,,,,,,,,,,,,,,,,,,,,,,,,,,,,,,,,,,,,,,,,,,,,,,,,,,,,,,,,,,,,,,,,,
1607645969.633049,33.000000,0.000000,4236.666504,4214.615234,4215.256348,4200.641113,4207.948730,4206.282227,4206.666504,4207.948730,4206.666504,4198.974121,4189.358887,4207.563965,4205.641113,4211.794922,0.000000,4.000000,,,,0.000000,4.000000,4.000000,4.000000,4.000000,4.000000,4.000000,4.000000,4.000000,4.000000,4.000000,4.000000,4.000000,4.000000,4.000000,100.000000,,,,,,,,,,,,,,,,,,,,,,,,,,,,,,,,,,,,,,,,,,,,,,,,,,,,,,,,,,,,,,,,,,,,,,,,,,,,,,,,,,
1607645969.640845,34.000000,0.000000,4239.871582,4215.897461,4213.974121,4198.205078,4208.717773,4198.333496,4206.025879,4205.641113,4204.487305,4200.000000,4194.102539,4212.820313,4208.205078,4214.358887,0.000000,4.000000,,,,0.000000,4.000000,4.000000,4.000000,4.000000,4.000000,4.000000,4.000000,4.000000,4.000000,4.000000,4.000000,4.000000,4.000000,4.000000,100.000000,,,,,,,,,,,,,,,,,,,,,,,,,,,,,,,,,,,,,,,,,,,,,,,,,,,,,,,,,,,,,,,,,,,,,,,,,,,,,,,,,,
1607645969.648642,35.000000,0.000000,4245.641113,4211.282227,4219.615234,4210.000000,4207.051270,4206.410156,4213.205078,4206.153809,4209.615234,4215.000000,4199.615234,4215.897461,4212.436035,4219.487305,0.000000,4.000000,,,,0.000000,4.000000,4.000000,4.000000,4.000000,4.000000,4.000000,4.000000,4.000000,4.000000,4.000000,4.000000,4.000000,4.000000,4.000000,100.000000,,,,,,,,,,,,,,,,,,,,,,,,,,,,,,,,,,,,,,,,,,,,,,,,,,,,,,,,,,,,,,,,,,,,,,,,,,,,,,,,,,
1607645969.656338,36.000000,0.000000,4250.256348,4220.000000,4226.794922,4216.282227,4208.846191,4217.563965,4217.307617,4215.128418,4221.538574,4226.922852,4205.000000,4216.666504,4226.538574,4228.461426,0.000000,4.000000,,,,0.000000,4.000000,4.000000,4.000000,4.000000,4.000000,4.000000,4.000000,4.000000,4.000000,4.000000,4.000000,4.000000,4.000000,4.000000,100.000000,9.000000,0.000000,0.581527,0.097168,-0.794678,0.144470,0.981460,-0.144533,-0.293462,-20.038147,-154.921799,-11.663997,,,,,,,,,,,,,,,,,,,,,,,,,,,,,,,,,,,,,,,,,,,,,,,,,,,,,,,,,,,,,,,,,,,,,,
1607645969.664134,37.000000,0.000000,4247.051270,4225.512695,4219.743652,4204.358887,4210.256348,4208.974121,4207.820313,4214.871582,4218.846191,4217.692383,4206.410156,4214.615234,4226.153809,4227.948730,0.000000,4.000000,,,,0.000000,4.000000,4.000000,4.000000,4.000000,4.000000,4.000000,4.000000,4.000000,4.000000,4.000000,4.000000,4.000000,4.000000,4.000000,100.000000,,,,,,,,,,,,,,,,,,,,,,,,,,,,,,,,,,,,,,,,,,,,,,,,,,,,,,,,,,,,,,,,,,,,,,,,,,,,,,,,,,
1607645969.671931,38.000000,0.000000,4248.717773,4215.769043,4216.025879,4203.461426,4214.487305,4203.205078,4207.307617,4213.461426,4215.512695,4213.589844,4207.436035,4214.358887,4219.358887,4225.128418,0.000000,4.000000,,,,0.000000,4.000000,4.000000,4.000000,4.000000,4.000000,4.000000,4.000000,4.000000,4.000000,4.000000,4.000000,4.000000,4.000000,4.000000,100.000000,,,,,,,,,,,,,,,,,,,,,,,,,,,,,,,,,,,,,,,,,,,,,,,,,,,,,,,,,,,,,,,,,,,,,,,,,,,,,,,,,,
1607645969.679727,39.000000,0.000000,4250.256348,4215.897461,4224.743652,4216.410156,4219.871582,4213.205078,4216.410156,4216.153809,4218.333496,4219.615234,4209.487305,4217.436035,4224.230957,4227.692383,0.000000,4.000000,,,,0.000000,4.000000,4.000000,4.000000,4.000000,4.000000,4.000000,4.000000,4.000000,4.000000,4.000000,4.000000,4.000000,4.000000,4.000000,100.000000,,,,,,,,,,,,,,,,,,,,,,,,,,,,,,,,,,,,,,,,,,,,,,,,,,,,,,,,,,,,,,,,,,,,,,,,,,,,,,,,,,
1607645969.687523,40.000000,0.000000,4248.589844,4228.846191,4228.333496,4218.717773,4220.897461,4218.205078,4216.153809,4217.563965,4218.077148,4217.948730,4210.641113,4217.692383,4230.897461,4229.871582,0.000000,4.000000,,,,0.000000,4.000000,4.000000,4.000000,4.000000,4.000000,4.000000,4.000000,4.000000,4.000000,4.000000,4.000000,4.000000,4.000000,4.000000,100.000000,10.000000,0.000000,0.580932,0.097290,-0.794617,0.147095,0.983413,-0.151858,-0.296880,-19.589533,-154.921799,-12.411689,,,,,,,,,,,,,,,,,,,,,,,,,,,,,,,,,,,,,,,,,,,,,,,,,,,,,,,,,,,,,,,,,,,,,,
1607645969.695319,41.000000,0.000000,4257.179688,4233.077148,4228.846191,4217.307617,4227.692383,4220.128418,4213.717773,4218.846191,4225.897461,4222.179688,4216.282227,4217.692383,4233.205078,4233.333496,0.000000,4.000000,,,,0.000000,4.000000,4.000000,4.000000,4.000000,4.000000,4.000000,4.000000,4.000000,4.000000,4.000000,4.000000,4.000000,4.000000,4.000000,100.000000,,,,,,,,,,,,,,,,,,,,,,,,,,,,,,,,,,,,,,,,,,,,,,,,,,,,,,,,,,,,,,,,,,,,,,,,,,,,,,,,,,
1607645969.703116,42.000000,0.000000,4262.179688,4228.846191,4232.179688,4219.743652,4231.153809,4225.256348,4216.025879,4220.512695,4233.846191,4229.871582,4216.282227,4218.589844,4232.307617,4234.358887,0.000000,4.000000,,,,0.000000,4.000000,4.000000,4.000000,4.000000,4.000000,4.000000,4.000000,4.000000,4.000000,4.000000,4.000000,4.000000,4.000000,4.000000,100.000000,,,,,,,,,,,,,3.292077,2.770310,0.761451,0.176128,0.111206,3.162947,2.164186,0.741047,0.471563,0.313233,2.022934,1.772014,0.382667,0.104663,0.133233,2.114250,1.188249,0.517323,0.118827,0.115679,3.087756,2.254979,0.661985,0.134454,0.208165,2.019567,1.321722,0.508578,0.085722,0.075579,0.479268,0.303902,0.206391,0.092099,0.084646,1.706272,1.259585,0.476280,0.088322,0.112873,4.262272,2.201069,0.850259,0.211404,0.182353,6.074280,3.568947,0.985330,0.280184,0.185250,2.904835,1.916831,0.627025,0.168776,0.126468,0.582470,0.359982,0.143896,0.048581,0.038709,4.461575,3.536411,1.128339,0.325451,0.204295,3.247833,2.678272,0.686311,0.191323,0.123417
