title:jake_stroop_3redo, start timestamp:1607646849.844407, stop timestamp:1607646902.588573, headset type:EPOCPLUS, headset serial:4A2C14BB, headset firmware:634, channels:120, sampling rate:eeg_128;mot_32;pow_8, samples:6767      , version:2.1, cqMode:0
Timestamp,EEG.Counter,EEG.Interpolated,EEG.AF3,EEG.F7,EEG.F3,EEG.FC5,EEG.T7,EEG.P7,EEG.O1,EEG.O2,EEG.P8,EEG.T8,EEG.FC6,EEG.F4,EEG.F8,EEG.AF4,EEG.RawCq,EEG.Battery,MarkerIndex,MarkerType,MarkerValueInt,EEG.MarkerHardware,CQ.AF3,CQ.F7,CQ.F3,CQ.FC5,CQ.T7,CQ.P7,CQ.O1,CQ.O2,CQ.P8,CQ.T8,CQ.FC6,CQ.F4,CQ.F8,CQ.AF4,CQ.Overall,MOT.CounterMems,MOT.InterpolatedMems,MOT.Q0,MOT.Q1,MOT.Q2,MOT.Q3,MOT.AccX,MOT.AccY,MOT.AccZ,MOT.MagX,MOT.MagY,MOT.MagZ,POW.AF3.Theta,POW.AF3.Alpha,POW.AF3.BetaL,POW.AF3.BetaH,POW.AF3.Gamma,POW.F7.Theta,POW.F7.Alpha,POW.F7.BetaL,POW.F7.BetaH,POW.F7.Gamma,POW.F3.Theta,POW.F3.Alpha,POW.F3.BetaL,POW.F3.BetaH,POW.F3.Gamma,POW.FC5.Theta,POW.FC5.Alpha,POW.FC5.BetaL,POW.FC5.BetaH,POW.FC5.Gamma,POW.T7.Theta,POW.T7.Alpha,POW.T7.BetaL,POW.T7.BetaH,POW.T7.Gamma,POW.P7.Theta,POW.P7.Alpha,POW.P7.BetaL,POW.P7.BetaH,POW.P7.Gamma,POW.O1.Theta,POW.O1.Alpha,POW.O1.BetaL,POW.O1.BetaH,POW.O1.Gamma,POW.O2.Theta,POW.O2.Alpha,POW.O2.BetaL,POW.O2.BetaH,POW.O2.Gamma,POW.P8.Theta,POW.P8.Alpha,POW.P8.BetaL,POW.P8.BetaH,POW.P8.Gamma,POW.T8.Theta,POW.T8.Alpha,POW.T8.BetaL,POW.T8.BetaH,POW.T8.Gamma,POW.FC6.Theta,POW.FC6.Alpha,POW.FC6.BetaL,POW.FC6.BetaH,POW.FC6.Gamma,POW.F4.Theta,POW.F4.Alpha,POW.F4.BetaL,POW.F4.BetaH,POW.F4.Gamma,POW.F8.Theta,POW.F8.Alpha,POW.F8.BetaL,POW.F8.BetaH,POW.F8.Gamma,POW.AF4.Theta,POW.AF4.Alpha,POW.AF4.BetaL,POW.AF4.BetaH,POW.AF4.Gamma
1607646849.844407,46.000000,0.000000,4183.717773,4195.384766,4206.282227,4180.384766,4200.384766,4200.256348,4202.563965,4203.205078,4210.384766,4205.641113,4191.025879,4204.743652,4208.461426,4196.794922,0.000000,4.000000,,,,0.000000,4.000000,4.000000,4.000000,4.000000,4.000000,4.000000,4.000000,4.000000,4.000000,4.000000,4.000000,4.000000,4.000000,4.000000,100.000000,,,,,,,,,,,,,,,,,,,,,,,,,,,,,,,,,,,,,,,,,,,,,,,,,,,,,,,,,,,,,,,,,,,,,,,,,,,,,,,,,,
1607646849.852103,47.000000,0.000000,4188.717773,4204.871582,4207.436035,4195.000000,4202.051270,4202.179688,4209.743652,4205.769043,4211.538574,4201.794922,4194.358887,4213.717773,4218.461426,4202.692383,0.000000,4.000000,,,,0.000000,4.000000,4.000000,4.000000,4.000000,4.000000,4.000000,4.000000,4.000000,4.000000,4.000000,4.000000,4.000000,4.000000,4.000000,100.000000,,,,,,,,,,,,,,,,,,,,,,,,,,,,,,,,,,,,,,,,,,,,,,,,,,,,,,,,,,,,,,,,,,,,,,,,,,,,,,,,,,
1607646849.859899,48.000000,0.000000,4192.436035,4197.051270,4203.461426,4207.820313,4199.487305,4197.820313,4206.410156,4205.512695,4209.102539,4206.282227,4200.256348,4211.666504,4216.666504,4202.692383,0.000000,4.000000,,,,0.000000,4.000000,4.000000,4.000000,4.000000,4.000000,4.000000,4.000000,4.000000,4.000000,4.000000,4.000000,4.000000,4.000000,4.000000,100.000000,12.000000,0.000000,0.601214,0.106445,-0.791077,0.037537,0.990250,0.077150,-0.282231,-26.617838,-148.940262,-11.963073,,,,,,,,,,,,,,,,,,,,,,,,,,,,,,,,,,,,,,,,,,,,,,,,,,,,,,,,,,,,,,,,,,,,,,
1607646849.867695,49.000000,0.000000,4185.256348,4184.358887,4201.666504,4193.461426,4189.743652,4195.641113,4200.128418,4203.461426,4201.794922,4203.461426,4197.563965,4205.256348,4203.717773,4198.333496,0.000000,4.000000,,,,0.000000,4.000000,4.000000,4.000000,4.000000,4.000000,4.000000,4.000000,4.000000,4.000000,4.000000,4.000000,4.000000,4.000000,4.000000,100.000000,,,,,,,,,,,,,,,,,,,,,,,,,,,,,,,,,,,,,,,,,,,,,,,,,,,,,,,,,,,,,,,,,,,,,,,,,,,,,,,,,,
1607646849.875491,50.000000,0.000000,4180.512695,4186.025879,4204.487305,4182.948730,4191.538574,4198.333496,4203.846191,4202.307617,4200.769043,4203.717773,4190.000000,4207.179688,4199.358887,4198.077148,0.000000,4.000000,,,,0.000000,4.000000,4.000000,4.000000,4.000000,4.000000,4.000000,4.000000,4.000000,4.000000,4.000000,4.000000,4.000000,4.000000,4.000000,100.000000,,,,,,,,,,,,,,,,,,,,,,,,,,,,,,,,,,,,,,,,,,,,,,,,,,,,,,,,,,,,,,,,,,,,,,,,,,,,,,,,,,
1607646849.883287,51.000000,0.000000,4184.487305,4182.820313,4204.615234,4196.153809,4198.461426,4195.641113,4206.666504,4201.025879,4201.153809,4205.128418,4188.333496,4206.410156,4203.205078,4198.077148,0.000000,4.000000,,,,0.000000,4.000000,4.000000,4.000000,4.000000,4.000000,4.000000,4.000000,4.000000,4.000000,4.000000,4.000000,4.000000,4.000000,4.000000,100.000000,,,,,,,,,,,,,,,,,,,,,,,,,,,,,,,,,,,,,,,,,,,,,,,,,,,,,,,,,,,,,,,,,,,,,,,,,,,,,,,,,,
1607646849.891083,52.000000,0.000000,4185.128418,4176.410156,4201.922852,4198.461426,4198.717773,4189.743652,4201.922852,4198.974121,4199.230957,4200.769043,4187.820313,4206.538574,4201.538574,4195.641113,0.000000,4.000000,,,,0.000000,4.000000,4.000000,4.000000,4.000000,4.000000,4.000000,4.000000,4.000000,4.000000,4.000000,4.000000,4.000000,4.000000,4.000000,100.000000,13.000000,0.000000,0.600832,0.107239,-0.791260,0.037537,0.995132,0.074708,-0.290044,-24.524300,-148.043030,-10.019073,,,,,,,,,,,,,,,,,,,,,,,,,,,,,,,,,,,,,,,,,,,,,,,,,,,,,,,,,,,,,,,,,,,,,,
1607646849.898879,53.000000,0.000000,4183.461426,4190.897461,4201.410156,4186.282227,4201.794922,4187.948730,4199.743652,4198.077148,4201.922852,4204.743652,4191.025879,4212.179688,4200.128418,4196.410156,0.000000,4.000000,,,,0.000000,4.000000,4.000000,4.000000,4.000000,4.000000,4.000000,4.000000,4.000000,4.000000,4.000000,4.000000,4.000000,4.000000,4.000000,100.000000,,,,,,,,,,,,,,,,,,,,,,,,,,,,,,,,,,,,,,,,,,,,,,,,,,,,,,,,,,,,,,,,,,,,,,,,,,,,,,,,,,
1607646849.906675,54.000000,0.000000,4185.384766,4204.358887,4202.820313,4189.102539,4198.846191,4190.000000,4201.794922,4200.128418,4200.128418,4209.743652,4197.436035,4209.743652,4203.589844,4200.769043,0.000000,4.000000,,,,0.000000,4.000000,4.000000,4.000000,4.000000,4.000000,4.000000,4.000000,4.000000,4.000000,4.000000,4.000000,4.000000,4.000000,4.000000,100.000000,,,,,,,,,,,,,,,,,,,,,,,,,,,,,,,,,,,,,,,,,,,,,,,,,,,,,,,,,,,,,,,,,,,,,,,,,,,,,,,,,,
1607646849.914471,55.000000,0.000000,4182.179688,4191.282227,4202.820313,4186.666504,4185.641113,4191.538574,4200.384766,4199.102539,4193.846191,4197.692383,4190.897461,4201.538574,4202.051270,4198.589844,0.000000,4.000000,,,,0.000000,4.000000,4.000000,4.000000,4.000000,4.000000,4.000000,4.000000,4.000000,4.000000,4.000000,4.000000,4.000000,4.000000,4.000000,100.000000,,,,,,,,,,,,,,,,,,,,,,,,,,,,,,,,,,,,,,,,,,,,,,,,,,,,,,,,,,,,,,,,,,,,,,,,,,,,,,,,,,
1607646849.922267,56.000000,0.000000,4177.436035,4175.256348,4199.487305,4181.153809,4187.307617,4188.333496,4197.948730,4195.769043,4194.871582,4196.282227,4186.538574,4206.538574,4202.563965,4196.538574,0.000000,4.000000,,,,0.000000,4.000000,4.000000,4.000000,4.000000,4.000000,4.000000,4.000000,4.000000,4.000000,4.000000,4.000000,4.000000,4.000000,4.000000,100.000000,14.000000,0.000000,0.600712,0.107483,-0.791321,0.037476,0.980972,0.081544,-0.295903,-26.617838,-149.687958,-10.916305,,,,,,,,,,,,,,,,,,,,,,,,,,,,,,,,,,,,,,,,,,,,,,,,,,,,,,,,,,,,,,,,,,,,,,
1607646849.929964,57.000000,0.000000,4181.666504,4180.897461,4198.974121,4195.128418,4202.307617,4187.692383,4196.538574,4199.743652,4198.589844,4216.538574,4197.307617,4215.000000,4213.589844,4202.563965,0.000000,4.000000,,,,0.000000,4.000000,4.000000,4.000000,4.000000,4.000000,4.000000,4.000000,4.000000,4.000000,4.000000,4.000000,4.000000,4.000000,4.000000,100.000000,,,,,,,,,,,,,,,,,,,,,,,,,,,,,,,,,,,,,,,,,,,,,,,,,,,,,,,,,,,,,,,,,,,,,,,,,,,,,,,,,,
1607646849.937760,58.000000,0.000000,4188.461426,4199.230957,4205.769043,4207.692383,4201.025879,4190.769043,4197.436035,4205.897461,4205.128418,4221.025879,4202.820313,4213.974121,4218.589844,4206.153809,0.000000,4.000000,,,,0.000000,4.000000,4.000000,4.000000,4.000000,4.000000,4.000000,4.000000,4.000000,4.000000,4.000000,4.000000,4.000000,4.000000,4.000000,100.000000,,,,,,,,,,,,,6.694431,1.740934,1.534088,0.593455,0.198494,0.611951,0.632282,0.686370,0.297009,0.500604,0.147985,0.239199,0.148450,0.097954,0.054808,0.970185,0.914191,0.582545,0.488235,0.338097,0.439743,0.656560,0.482667,0.308532,0.382907,0.664393,0.961115,0.225633,0.160537,0.112087,0.786070,1.054339,0.194908,0.189141,0.071469,0.689815,0.621334,0.434007,0.238126,0.124930,0.541106,0.555848,0.733019,0.384830,0.173258,1.319041,0.833810,0.834529,0.581636,0.511658,1.605576,0.585501,0.299712,0.157572,0.081261,0.747425,0.276233,0.221081,0.236139,0.088545,4.730441,0.757151,0.778687,0.436407,0.155353,3.188377,0.571980,0.289701,0.237922,0.125984
1607646849.945556,59.000000,0.000000,4182.820313,4201.153809,4213.717773,4201.153809,4188.205078,4189.615234,4199.743652,4205.384766,4212.948730,4211.153809,4199.743652,4214.230957,4213.717773,4204.871582,0.000000,4.000000,,,,0.000000,4.000000,4.000000,4.000000,4.000000,4.000000,4.000000,4.000000,4.000000,4.000000,4.000000,4.000000,4.000000,4.000000,4.000000,100.000000,,,,,,,,,,,,,,,,,,,,,,,,,,,,,,,,,,,,,,,,,,,,,,,,,,,,,,,,,,,,,,,,,,,,,,,,,,,,,,,,,,
1607646849.953352,60.000000,0.000000,4171.922852,4185.769043,4217.820313,4192.948730,4187.692383,4191.538574,4201.666504,4204.743652,4212.179688,4216.922852,4203.205078,4217.307617,4215.384766,4204.102539,0.000000,4.000000,,,,0.000000,4.000000,4.000000,4.000000,4.000000,4.000000,4.000000,4.000000,4.000000,4.000000,4.000000,4.000000,4.000000,4.000000,4.000000,100.000000,15.000000,0.000000,0.600526,0.107727,-0.791443,0.037170,0.993179,0.066896,-0.305669,-26.916914,-148.491638,-12.710765,,,,,,,,,,,,,,,,,,,,,,,,,,,,,,,,,,,,,,,,,,,,,,,,,,,,,,,,,,,,,,,,,,,,,,
1607646849.961148,61.000000,0.000000,4169.487305,4187.948730,4213.589844,4191.282227,4195.384766,4195.512695,4202.179688,4205.512695,4204.615234,4217.436035,4204.871582,4218.205078,4219.102539,4202.948730,0.000000,4.000000,,,,0.000000,4.000000,4.000000,4.000000,4.000000,4.000000,4.000000,4.000000,4.000000,4.000000,4.000000,4.000000,4.000000,4.000000,4.000000,100.000000,,,,,,,,,,,,,,,,,,,,,,,,,,,,,,,,,,,,,,,,,,,,,,,,,,,,,,,,,,,,,,,,,,,,,,,,,,,,,,,,,,
1607646849.968944,62.000000,0.000000,4169.615234,4198.461426,4205.000000,4192.051270,4195.769043,4189.102539,4200.384766,4200.641113,4200.897461,4203.205078,4199.358887,4213.333496,4210.769043,4199.230957,0.000000,4.000000,,,,0.000000,4.000000,4.000000,4.000000,4.000000,4.000000,4.000000,4.000000,4.000000,4.000000,4.000000,4.000000,4.000000,4.000000,4.000000,100.000000,,,,,,,,,,,,,,,,,,,,,,,,,,,,,,,,,,,,,,,,,,,,,,,,,,,,,,,,,,,,,,,,,,,,,,,,,,,,,,,,,,
1607646849.976740,63.000000,0.000000,4166.025879,4190.128418,4201.538574,4188.333496,4196.922852,4184.230957,4199.102539,4200.512695,4202.820313,4201.410156,4198.717773,4211.666504,4205.128418,4197.436035,0.000000,4.000000,,,,0.000000,4.000000,4.000000,4.000000,4.000000,4.000000,4.000000,4.000000,4.000000,4.000000,4.000000,4.000000,4.000000,4.000000,4.000000,100.000000,,,,,,,,,,,,,,,,,,,,,,,,,,,,,,,,,,,,,,,,,,,,,,,,,,,,,,,,,,,,,,,,,,,,,,,,,,,,,,,,,,
1607646849.984536,64.000000,0.000000,4159.102539,4182.948730,4201.153809,4181.153809,4201.794922,4187.051270,4198.333496,4199.743652,4202.692383,4208.333496,4197.436035,4211.410156,4207.563965,4193.717773,2884.000000,4.000000,,,,0.000000,4.000000,4.000000,4.000000,4.000000,4.000000,4.000000,4.000000,4.000000,4.000000,4.000000,4.000000,4.000000,4.000000,4.000000,100.000000,16.000000,0.000000,0.600585,0.107849,-0.791382,0.037170,0.979019,0.050294,-0.282719,-25.720608,-149.239334,-11.963073,,,,,,,,,,,,,,,,,,,,,,,,,,,,,,,,,,,,,,,,,,,,,,,,,,,,,,,,,,,,,,,,,,,,,,
1607646849.992232,65.000000,0.000000,4153.333496,4183.974121,4198.974121,4185.256348,4194.871582,4186.410156,4196.794922,4188.333496,4198.077148,4199.358887,4188.205078,4203.846191,4200.897461,4185.641113,2921.000000,4.000000,,,,0.000000,4.000000,4.000000,4.000000,4.000000,4.000000,4.000000,4.000000,4.000000,4.000000,4.000000,4.000000,4.000000,4.000000,4.000000,100.000000,,,,,,,,,,,,,,,,,,,,,,,,,,,,,,,,,,,,,,,,,,,,,,,,,,,,,,,,,,,,,,,,,,,,,,,,,,,,,,,,,,
1607646850.000028,66.000000,0.000000,4158.333496,4183.077148,4198.974121,4197.692383,4189.743652,4188.846191,4198.205078,4188.974121,4200.641113,4197.179688,4189.615234,4200.384766,4200.384766,4188.461426,3424.000000,4.000000,,,,0.000000,4.000000,4.000000,4.000000,4.000000,4.000000,4.000000,4.000000,4.000000,4.000000,4.000000,4.000000,4.000000,4.000000,4.000000,100.000000,,,,,,,,,,,,,,,,,,,,,,,,,,,,,,,,,,,,,,,,,,,,,,,,,,,,,,,,,,,,,,,,,,,,,,,,,,,,,,,,,,
1607646850.007824,67.000000,0.000000,4169.743652,4194.871582,4202.563965,4202.307617,4200.769043,4198.461426,4202.051270,4202.563965,4209.615234,4218.846191,4203.205078,4206.025879,4213.846191,4200.128418,3513.000000,4.000000,,,,0.000000,4.000000,4.000000,4.000000,4.000000,4.000000,4.000000,4.000000,4.000000,4.000000,4.000000,4.000000,4.000000,4.000000,4.000000,100.000000,,,,,,,,,,,,,,,,,,,,,,,,,,,,,,,,,,,,,,,,,,,,,,,,,,,,,,,,,,,,,,,,,,,,,,,,,,,,,,,,,,
1607646850.015620,68.000000,0.000000,4169.615234,4212.051270,4201.922852,4199.871582,4207.179688,4202.307617,4202.307617,4201.153809,4206.794922,4219.615234,4199.615234,4206.538574,4213.077148,4202.948730,3651.000000,4.000000,,,,0.000000,4.000000,4.000000,4.000000,4.000000,4.000000,4.000000,4.000000,4.000000,4.000000,4.000000,4.000000,4.000000,4.000000,4.000000,100.000000,17.000000,0.000000,0.600907,0.107544,-0.791199,0.036743,0.989761,0.071778,-0.284672,-27.365530,-149.687958,-11.663997,,,,,,,,,,,,,,,,,,,,,,,,,,,,,,,,,,,,,,,,,,,,,,,,,,,,,,,,,,,,,,,,,,,,,,
1607646850.023416,69.000000,0.000000,4165.128418,4199.743652,4200.512695,4199.358887,4200.512695,4199.871582,4200.897461,4194.230957,4194.871582,4192.307617,4185.256348,4202.692383,4201.410156,4195.897461,3437.000000,4.000000,,,,0.000000,4.000000,4.000000,4.000000,4.000000,4.000000,4.000000,4.000000,4.000000,4.000000,4.000000,4.000000,4.000000,4.000000,4.000000,100.000000,,,,,,,,,,,,,,,,,,,,,,,,,,,,,,,,,,,,,,,,,,,,,,,,,,,,,,,,,,,,,,,,,,,,,,,,,,,,,,,,,,
1607646850.031212,70.000000,0.000000,4166.666504,4181.538574,4201.282227,4199.230957,4200.000000,4194.230957,4198.461426,4197.692383,4190.769043,4188.333496,4185.256348,4202.692383,4200.897461,4191.282227,3310.000000,4.000000,,,,0.000000,4.000000,4.000000,4.000000,4.000000,4.000000,4.000000,4.000000,4.000000,4.000000,4.000000,4.000000,4.000000,4.000000,4.000000,100.000000,,,,,,,,,,,,,,,,,,,,,,,,,,,,,,,,,,,,,,,,,,,,,,,,,,,,,,,,,,,,,,,,,,,,,,,,,,,,,,,,,,
1607646850.039008,71.000000,0.000000,4171.025879,4194.487305,4200.000000,4191.282227,4205.384766,4186.922852,4190.897461,4196.922852,4194.871582,4205.769043,4187.820313,4203.333496,4201.794922,4188.461426,3145.000000,4.000000,,,,0.000000,4.000000,4.000000,4.000000,4.000000,4.000000,4.000000,4.000000,4.000000,4.000000,4.000000,4.000000,4.000000,4.000000,4.000000,100.000000,,,,,,,,,,,,,,,,,,,,,,,,,,,,,,,,,,,,,,,,,,,,,,,,,,,,,,,,,,,,,,,,,,,,,,,,,,,,,,,,,,
1607646850.046804,72.000000,0.000000,4178.846191,4202.051270,4199.230957,4181.794922,4195.769043,4188.077148,4188.077148,4196.922852,4196.025879,4204.615234,4185.000000,4207.307617,4198.974121,4188.205078,3480.000000,4.000000,,,,0.000000,4.000000,4.000000,4.000000,4.000000,4.000000,4.000000,4.000000,4.000000,4.000000,4.000000,4.000000,4.000000,4.000000,4.000000,100.000000,18.000000,0.000000,0.601203,0.107361,-0.791016,0.036377,1.003433,0.076173,-0.288579,-26.767376,-149.089798,-12.262150,,,,,,,,,,,,,,,,,,,,,,,,,,,,,,,,,,,,,,,,,,,,,,,,,,,,,,,,,,,,,,,,,,,,,,
1607646850.054601,73.000000,0.000000,4186.153809,4188.077148,4200.000000,4186.922852,4186.153809,4191.282227,4190.641113,4204.743652,4192.307617,4195.384766,4188.974121,4212.948730,4200.384766,4190.512695,3637.000000,4.000000,,,,0.000000,4.000000,4.000000,4.000000,4.000000,4.000000,4.000000,4.000000,4.000000,4.000000,4.000000,4.000000,4.000000,4.000000,4.000000,100.000000,,,,,,,,,,,,,,,,,,,,,,,,,,,,,,,,,,,,,,,,,,,,,,,,,,,,,,,,,,,,,,,,,,,,,,,,,,,,,,,,,,
1607646850.062297,74.000000,0.000000,4191.282227,4188.589844,4200.897461,4198.974121,4192.436035,4190.000000,4190.384766,4198.846191,4190.384766,4200.000000,4189.230957,4212.179688,4199.358887,4188.974121,3589.000000,4.000000,,,,0.000000,4.000000,4.000000,4.000000,4.000000,4.000000,4.000000,4.000000,4.000000,4.000000,4.000000,4.000000,4.000000,4.000000,4.000000,100.000000,,,,,,,,,,,,,5.284454,1.880001,1.269748,0.547813,0.175995,0.515224,0.848923,0.697358,0.330403,0.468050,0.116924,0.351632,0.148770,0.104788,0.052674,1.019029,1.215130,0.559890,0.464423,0.337111,0.445059,0.743649,0.459848,0.333920,0.353947,0.614778,0.805295,0.200231,0.151805,0.092780,0.810088,0.989140,0.170961,0.196309,0.059712,0.590800,0.663529,0.413241,0.216012,0.100340,0.404904,0.579106,0.704074,0.371627,0.169384,0.983714,0.970138,0.732174,0.552342,0.478982,1.134856,0.734098,0.332927,0.120189,0.078254,0.647388,0.375362,0.220368,0.231270,0.081450,2.696482,0.969191,0.769990,0.396714,0.136218,1.942474,0.725127,0.288316,0.178550,0.109919
1607646850.070093,75.000000,0.000000,4197.051270,4193.974121,4203.205078,4202.820313,4200.512695,4194.487305,4193.846191,4186.794922,4195.128418,4201.410156,4184.487305,4210.512695,4197.179688,4192.051270,3436.000000,4.000000,,,,0.000000,4.000000,4.000000,4.000000,4.000000,4.000000,4.000000,4.000000,4.000000,4.000000,4.000000,4.000000,4.000000,4.000000,4.000000,100.000000,,,,,,,,,,,,,,,,,,,,,,,,,,,,,,,,,,,,,,,,,,,,,,,,,,,,,,,,,,,,,,,,,,,,,,,,,,,,,,,,,,
1607646850.077889,76.000000,0.000000,4203.717773,4180.256348,4203.974121,4202.307617,4201.025879,4197.563965,4200.000000,4191.153809,4201.666504,4199.487305,4189.487305,4213.589844,4201.282227,4198.717773,2777.000000,4.000000,,,,0.000000,4.000000,4.000000,4.000000,4.000000,4.000000,4.000000,4.000000,4.000000,4.000000,4.000000,4.000000,4.000000,4.000000,4.000000,100.000000,19.000000,0.000000,0.601512,0.106689,-0.790894,0.035889,0.985855,0.068849,-0.284184,-24.524300,-148.491638,-11.963073,,,,,,,,,,,,,,,,,,,,,,,,,,,,,,,,,,,,,,,,,,,,,,,,,,,,,,,,,,,,,,,,,,,,,,
1607646850.085685,77.000000,0.000000,4211.025879,4188.974121,4202.692383,4199.743652,4201.282227,4193.589844,4199.230957,4203.461426,4202.948730,4209.743652,4199.487305,4215.128418,4210.897461,4200.897461,2458.000000,4.000000,,,,0.000000,4.000000,4.000000,4.000000,4.000000,4.000000,4.000000,4.000000,4.000000,4.000000,4.000000,4.000000,4.000000,4.000000,4.000000,100.000000,,,,,,,,,,,,,,,,,,,,,,,,,,,,,,,,,,,,,,,,,,,,,,,,,,,,,,,,,,,,,,,,,,,,,,,,,,,,,,,,,,
1607646850.093481,78.000000,0.000000,4211.410156,4208.846191,4206.282227,4198.461426,4199.102539,4194.743652,4197.563965,4202.436035,4200.641113,4218.589844,4203.077148,4215.769043,4217.820313,4200.384766,3589.000000,4.000000,,,,0.000000,4.000000,4.000000,4.000000,4.000000,4.000000,4.000000,4.000000,4.000000,4.000000,4.000000,4.000000,4.000000,4.000000,4.000000,100.000000,,,,,,,,,,,,,,,,,,,,,,,,,,,,,,,,,,,,,,,,,,,,,,,,,,,,,,,,,,,,,,,,,,,,,,,,,,,,,,,,,,
1607646850.101277,79.000000,0.000000,4198.205078,4193.461426,4216.794922,4200.897461,4197.436035,4202.436035,4203.205078,4200.769043,4205.512695,4215.641113,4204.487305,4217.307617,4216.538574,4200.128418,3436.000000,4.000000,,,,0.000000,4.000000,4.000000,4.000000,4.000000,4.000000,4.000000,4.000000,4.000000,4.000000,4.000000,4.000000,4.000000,4.000000,4.000000,100.000000,,,,,,,,,,,,,,,,,,,,,,,,,,,,,,,,,,,,,,,,,,,,,,,,,,,,,,,,,,,,,,,,,,,,,,,,,,,,,,,,,,
1607646850.109073,80.000000,0.000000,4185.384766,4184.102539,4216.282227,4203.974121,4205.128418,4201.153809,4205.256348,4206.538574,4215.641113,4212.692383,4203.974121,4216.538574,4213.205078,4201.922852,2777.000000,4.000000,,,,0.000000,4.000000,4.000000,4.000000,4.000000,4.000000,4.000000,4.000000,4.000000,4.000000,4.000000,4.000000,4.000000,4.000000,4.000000,100.000000,20.000000,0.000000,0.601959,0.106140,-0.790649,0.035400,1.004410,0.082033,-0.286137,-27.515068,-148.342102,-11.364920,,,,,,,,,,,,,,,,,,,,,,,,,,,,,,,,,,,,,,,,,,,,,,,,,,,,,,,,,,,,,,,,,,,,,,
1607646850.116869,81.000000,0.000000,4186.153809,4199.487305,4205.512695,4200.384766,4202.692383,4195.641113,4201.538574,4207.179688,4216.153809,4217.820313,4202.948730,4215.641113,4213.974121,4203.846191,2458.000000,4.000000,,,,0.000000,4.000000,4.000000,4.000000,4.000000,4.000000,4.000000,4.000000,4.000000,4.000000,4.000000,4.000000,4.000000,4.000000,4.000000,100.000000,,,,,,,,,,,,,,,,,,,,,,,,,,,,,,,,,,,,,,,,,,,,,,,,,,,,,,,,,,,,,,,,,,,,,,,,,,,,,,,,,,
1607646850.124665,82.000000,0.000000,4187.563965,4202.051270,4210.000000,4195.512695,4197.436035,4196.794922,4201.025879,4207.179688,4212.307617,4220.000000,4208.077148,4218.333496,4221.666504,4205.000000,3589.000000,4.000000,,,,0.000000,4.000000,4.000000,4.000000,4.000000,4.000000,4.000000,4.000000,4.000000,4.000000,4.000000,4.000000,4.000000,4.000000,4.000000,100.000000,,,,,,,,,,,,,,,,,,,,,,,,,,,,,,,,,,,,,,,,,,,,,,,,,,,,,,,,,,,,,,,,,,,,,,,,,,,,,,,,,,
1607646850.132361,83.000000,0.000000,4187.051270,4194.230957,4216.922852,4201.794922,4209.487305,4197.307617,4201.666504,4211.794922,4217.692383,4219.871582,4215.512695,4220.128418,4232.563965,4204.743652,3436.000000,4.000000,,,,0.000000,4.000000,4.000000,4.000000,4.000000,4.000000,4.000000,4.000000,4.000000,4.000000,4.000000,4.000000,4.000000,4.000000,4.000000,100.000000,,,,,,,,,,,,,,,,,,,,,,,,,,,,,,,,,,,,,,,,,,,,,,,,,,,,,,,,,,,,,,,,,,,,,,,,,,,,,,,,,,
1607646850.140157,84.000000,0.000000,4189.615234,4192.179688,4207.436035,4205.769043,4208.974121,4193.846191,4202.307617,4215.641113,4221.922852,4223.974121,4213.974121,4218.205078,4233.461426,4205.769043,2777.000000,4.000000,,,,0.000000,4.000000,4.000000,4.000000,4.000000,4.000000,4.000000,4.000000,4.000000,4.000000,4.000000,4.000000,4.000000,4.000000,4.000000,100.000000,21.000000,0.000000,0.601937,0.106201,-0.790649,0.035583,1.003433,0.080079,-0.280278,-24.972916,-148.940262,-12.411689,,,,,,,,,,,,,,,,,,,,,,,,,,,,,,,,,,,,,,,,,,,,,,,,,,,,,,,,,,,,,,,,,,,,,,
1607646850.147953,85.000000,0.000000,4183.333496,4179.358887,4198.846191,4194.743652,4189.230957,4193.589844,4203.333496,4213.205078,4209.615234,4222.051270,4204.871582,4216.025879,4223.077148,4197.820313,2458.000000,4.000000,,,,0.000000,4.000000,4.000000,4.000000,4.000000,4.000000,4.000000,4.000000,4.000000,4.000000,4.000000,4.000000,4.000000,4.000000,4.000000,100.000000,,,,,,,,,,,,,,,,,,,,,,,,,,,,,,,,,,,,,,,,,,,,,,,,,,,,,,,,,,,,,,,,,,,,,,,,,,,,,,,,,,
1607646850.155749,86.000000,0.000000,4171.153809,4167.307617,4200.641113,4183.077148,4184.102539,4194.871582,4203.717773,4207.307617,4194.743652,4209.102539,4198.974121,4213.205078,4211.922852,4186.922852,3589.000000,4.000000,,,,0.000000,4.000000,4.000000,4.000000,4.000000,4.000000,4.000000,4.000000,4.000000,4.000000,4.000000,4.000000,4.000000,4.000000,4.000000,100.000000,,,,,,,,,,,,,,,,,,,,,,,,,,,,,,,,,,,,,,,,,,,,,,,,,,,,,,,,,,,,,,,,,,,,,,,,,,,,,,,,,,
1607646850.163545,87.000000,0.000000,4166.282227,4173.077148,4199.230957,4184.358887,4186.410156,4193.077148,4202.307617,4205.000000,4201.282227,4208.205078,4199.102539,4207.692383,4207.436035,4186.282227,3436.000000,4.000000,,,,0.000000,4.000000,4.000000,4.000000,4.000000,4.000000,4.000000,4.000000,4.000000,4.000000,4.000000,4.000000,4.000000,4.000000,4.000000,100.000000,,,,,,,,,,,,,,,,,,,,,,,,,,,,,,,,,,,,,,,,,,,,,,,,,,,,,,,,,,,,,,,,,,,,,,,,,,,,,,,,,,
1607646850.171341,88.000000,0.000000,4163.717773,4168.717773,4195.769043,4189.230957,4188.589844,4188.974121,4201.410156,4205.769043,4215.384766,4213.333496,4198.589844,4204.615234,4206.922852,4185.897461,2777.000000,4.000000,,,,0.000000,4.000000,4.000000,4.000000,4.000000,4.000000,4.000000,4.000000,4.000000,4.000000,4.000000,4.000000,4.000000,4.000000,4.000000,100.000000,22.000000,0.000000,0.601898,0.106384,-0.790649,0.035706,0.992203,0.078126,-0.282719,-26.318762,-148.342102,-10.617228,,,,,,,,,,,,,,,,,,,,,,,,,,,,,,,,,,,,,,,,,,,,,,,,,,,,,,,,,,,,,,,,,,,,,,
1607646850.179138,89.000000,0.000000,4156.922852,4158.205078,4197.948730,4184.230957,4199.358887,4186.922852,4201.025879,4205.769043,4210.512695,4199.615234,4198.461426,4204.743652,4207.051270,4181.794922,2458.000000,4.000000,,,,0.000000,4.000000,4.000000,4.000000,4.000000,4.000000,4.000000,4.000000,4.000000,4.000000,4.000000,4.000000,4.000000,4.000000,4.000000,100.000000,,,,,,,,,,,,,,,,,,,,,,,,,,,,,,,,,,,,,,,,,,,,,,,,,,,,,,,,,,,,,,,,,,,,,,,,,,,,,,,,,,
1607646850.186934,90.000000,0.000000,4154.230957,4166.410156,4195.128418,4178.846191,4197.692383,4189.230957,4200.384766,4203.333496,4200.641113,4195.384766,4198.205078,4203.205078,4206.922852,4182.948730,3589.000000,4.000000,,,,0.000000,4.000000,4.000000,4.000000,4.000000,4.000000,4.000000,4.000000,4.000000,4.000000,4.000000,4.000000,4.000000,4.000000,4.000000,100.000000,,,,,,,,,,,,,3.819296,1.874193,0.990655,0.484768,0.164070,0.512419,1.087004,0.715656,0.379697,0.459445,0.132370,0.465945,0.163335,0.118774,0.059610,0.998389,1.430192,0.572426,0.428102,0.334901,0.470501,0.844029,0.413314,0.385299,0.322564,0.540775,0.618936,0.179948,0.139618,0.078612,0.804804,0.867570,0.171587,0.198392,0.052323,0.512016,0.641214,0.389108,0.185002,0.084049,0.401136,0.601260,0.656897,0.371589,0.165002,0.828144,1.083050,0.663503,0.549693,0.454050,0.801814,0.853245,0.361809,0.095038,0.081648,0.541494,0.467433,0.208471,0.214497,0.079728,1.361084,1.171525,0.768438,0.369906,0.124807,1.116400,0.867626,0.285227,0.138470,0.102232
1607646850.194730,91.000000,0.000000,4158.205078,4178.461426,4191.538574,4176.666504,4181.666504,4195.512695,4201.282227,4204.230957,4203.974121,4212.179688,4193.589844,4201.410156,4206.025879,4184.102539,3436.000000,4.000000,,,,0.000000,4.000000,4.000000,4.000000,4.000000,4.000000,4.000000,4.000000,4.000000,4.000000,4.000000,4.000000,4.000000,4.000000,4.000000,100.000000,,,,,,,,,,,,,,,,,,,,,,,,,,,,,,,,,,,,,,,,,,,,,,,,,,,,,,,,,,,,,,,,,,,,,,,,,,,,,,,,,,
1607646850.202426,92.000000,0.000000,4152.436035,4170.641113,4190.641113,4175.897461,4180.897461,4201.922852,4202.563965,4203.333496,4204.102539,4212.820313,4187.692383,4201.153809,4198.974121,4174.487305,2777.000000,4.000000,,,,0.000000,4.000000,4.000000,4.000000,4.000000,4.000000,4.000000,4.000000,4.000000,4.000000,4.000000,4.000000,4.000000,4.000000,4.000000,100.000000,23.000000,0.000000,0.601662,0.106689,-0.790771,0.036072,0.991226,0.075685,-0.310063,-25.271992,-149.687958,-11.963073,,,,,,,,,,,,,,,,,,,,,,,,,,,,,,,,,,,,,,,,,,,,,,,,,,,,,,,,,,,,,,,,,,,,,,
1607646850.210222,93.000000,0.000000,4144.615234,4167.563965,4190.384766,4180.897461,4189.743652,4199.743652,4203.461426,4201.922852,4196.794922,4197.307617,4186.025879,4202.179688,4193.589844,4168.846191,2458.000000,4.000000,,,,0.000000,4.000000,4.000000,4.000000,4.000000,4.000000,4.000000,4.000000,4.000000,4.000000,4.000000,4.000000,4.000000,4.000000,4.000000,100.000000,,,,,,,,,,,,,,,,,,,,,,,,,,,,,,,,,,,,,,,,,,,,,,,,,,,,,,,,,,,,,,,,,,,,,,,,,,,,,,,,,,
1607646850.218018,94.000000,0.000000,4147.820313,4172.820313,4196.025879,4187.307617,4188.333496,4190.769043,4203.974121,4204.871582,4199.487305,4197.948730,4187.307617,4203.717773,4200.512695,4179.871582,3589.000000,4.000000,,,,0.000000,4.000000,4.000000,4.000000,4.000000,4.000000,4.000000,4.000000,4.000000,4.000000,4.000000,4.000000,4.000000,4.000000,4.000000,100.000000,,,,,,,,,,,,,,,,,,,,,,,,,,,,,,,,,,,,,,,,,,,,,,,,,,,,,,,,,,,,,,,,,,,,,,,,,,,,,,,,,,
1607646850.225814,95.000000,0.000000,4147.307617,4162.051270,4197.051270,4183.077148,4179.871582,4186.410156,4201.666504,4203.461426,4200.769043,4200.384766,4185.897461,4205.128418,4203.077148,4182.307617,3436.000000,4.000000,,,,0.000000,4.000000,4.000000,4.000000,4.000000,4.000000,4.000000,4.000000,4.000000,4.000000,4.000000,4.000000,4.000000,4.000000,4.000000,100.000000,,,,,,,,,,,,,,,,,,,,,,,,,,,,,,,,,,,,,,,,,,,,,,,,,,,,,,,,,,,,,,,,,,,,,,,,,,,,,,,,,,
1607646850.233610,96.000000,0.000000,4141.153809,4157.692383,4191.922852,4175.897461,4178.589844,4190.000000,4200.384766,4200.641113,4194.743652,4188.717773,4183.205078,4205.641113,4196.410156,4175.384766,2777.000000,4.000000,,,,0.000000,4.000000,4.000000,4.000000,4.000000,4.000000,4.000000,4.000000,4.000000,4.000000,4.000000,4.000000,4.000000,4.000000,4.000000,100.000000,24.000000,0.000000,0.601337,0.106934,-0.790955,0.036743,0.993179,0.084962,-0.290044,-26.916914,-148.940262,-11.663997,,,,,,,,,,,,,,,,,,,,,,,,,,,,,,,,,,,,,,,,,,,,,,,,,,,,,,,,,,,,,,,,,,,,,,
1607646850.241406,97.000000,0.000000,4140.641113,4170.384766,4194.487305,4182.307617,4187.436035,4195.512695,4202.179688,4201.922852,4196.410156,4187.563965,4186.153809,4204.871582,4199.487305,4175.769043,2458.000000,4.000000,,,,0.000000,4.000000,4.000000,4.000000,4.000000,4.000000,4.000000,4.000000,4.000000,4.000000,4.000000,4.000000,4.000000,4.000000,4.000000,100.000000,,,,,,,,,,,,,,,,,,,,,,,,,,,,,,,,,,,,,,,,,,,,,,,,,,,,,,,,,,,,,,,,,,,,,,,,,,,,,,,,,,
1607646850.249202,98.000000,0.000000,4140.128418,4173.333496,4199.615234,4188.077148,4191.410156,4196.922852,4197.692383,4202.563965,4194.743652,4193.461426,4189.230957,4203.077148,4204.615234,4177.179688,3589.000000,4.000000,,,,0.000000,4.000000,4.000000,4.000000,4.000000,4.000000,4.000000,4.000000,4.000000,4.000000,4.000000,4.000000,4.000000,4.000000,4.000000,100.000000,,,,,,,,,,,,,,,,,,,,,,,,,,,,,,,,,,,,,,,,,,,,,,,,,,,,,,,,,,,,,,,,,,,,,,,,,,,,,,,,,,
1607646850.256998,99.000000,0.000000,4138.589844,4162.436035,4195.897461,4184.102539,4183.846191,4193.077148,4186.666504,4198.461426,4182.307617,4192.307617,4186.025879,4204.358887,4197.179688,4175.128418,3436.000000,4.000000,,,,0.000000,4.000000,4.000000,4.000000,4.000000,4.000000,4.000000,4.000000,4.000000,4.000000,4.000000,4.000000,4.000000,4.000000,4.000000,100.000000,,,,,,,,,,,,,,,,,,,,,,,,,,,,,,,,,,,,,,,,,,,,,,,,,,,,,,,,,,,,,,,,,,,,,,,,,,,,,,,,,,
1607646850.264794,100.000000,0.000000,4148.974121,4163.846191,4197.051270,4180.897461,4184.102539,4191.794922,4188.205078,4197.436035,4183.589844,4193.974121,4190.128418,4212.179688,4196.153809,4181.153809,2777.000000,4.000000,,,,0.000000,4.000000,4.000000,4.000000,4.000000,4.000000,4.000000,4.000000,4.000000,4.000000,4.000000,4.000000,4.000000,4.000000,4.000000,100.000000,25.000000,0.000000,0.601289,0.106689,-0.791016,0.036926,1.001968,0.071290,-0.290532,-27.814146,-149.687958,-11.215381,,,,,,,,,,,,,,,,,,,,,,,,,,,,,,,,,,,,,,,,,,,,,,,,,,,,,,,,,,,,,,,,,,,,,,
1607646850.272490,101.000000,0.000000,4158.717773,4178.717773,4204.487305,4183.461426,4193.205078,4199.615234,4195.384766,4203.846191,4199.102539,4205.128418,4202.307617,4217.436035,4208.717773,4190.000000,2458.000000,4.000000,,,,0.000000,4.000000,4.000000,4.000000,4.000000,4.000000,4.000000,4.000000,4.000000,4.000000,4.000000,4.000000,4.000000,4.000000,4.000000,100.000000,,,,,,,,,,,,,,,,,,,,,,,,,,,,,,,,,,,,,,,,,,,,,,,,,,,,,,,,,,,,,,,,,,,,,,,,,,,,,,,,,,
1607646850.280286,102.000000,0.000000,4154.230957,4187.307617,4201.282227,4192.307617,4192.563965,4199.615234,4192.692383,4206.025879,4201.153809,4213.333496,4203.589844,4215.256348,4207.307617,4186.538574,3589.000000,4.000000,,,,0.000000,4.000000,4.000000,4.000000,4.000000,4.000000,4.000000,4.000000,4.000000,4.000000,4.000000,4.000000,4.000000,4.000000,4.000000,100.000000,,,,,,,,,,,,,,,,,,,,,,,,,,,,,,,,,,,,,,,,,,,,,,,,,,,,,,,,,,,,,,,,,,,,,,,,,,,,,,,,,,
1607646850.288082,103.000000,0.000000,4151.794922,4182.307617,4199.230957,4199.487305,4184.743652,4187.692383,4188.717773,4203.205078,4199.102539,4211.410156,4197.307617,4212.820313,4198.461426,4183.461426,3436.000000,4.000000,,,,0.000000,4.000000,4.000000,4.000000,4.000000,4.000000,4.000000,4.000000,4.000000,4.000000,4.000000,4.000000,4.000000,4.000000,4.000000,100.000000,,,,,,,,,,,,,,,,,,,,,,,,,,,,,,,,,,,,,,,,,,,,,,,,,,,,,,,,,,,,,,,,,,,,,,,,,,,,,,,,,,
1607646850.295878,104.000000,0.000000,4157.948730,4173.589844,4202.692383,4197.436035,4190.000000,4187.948730,4191.025879,4207.436035,4209.871582,4211.666504,4201.282227,4214.230957,4210.256348,4190.384766,2777.000000,4.000000,,,,0.000000,4.000000,4.000000,4.000000,4.000000,4.000000,4.000000,4.000000,4.000000,4.000000,4.000000,4.000000,4.000000,4.000000,4.000000,100.000000,26.000000,0.000000,0.601358,0.106689,-0.790955,0.037109,0.985367,0.072755,-0.299809,-25.271992,-149.687958,-12.710765,,,,,,,,,,,,,,,,,,,,,,,,,,,,,,,,,,,,,,,,,,,,,,,,,,,,,,,,,,,,,,,,,,,,,,
1607646850.303675,105.000000,0.000000,4164.871582,4176.794922,4202.436035,4193.589844,4204.358887,4199.358887,4194.487305,4216.410156,4218.077148,4215.897461,4209.871582,4218.077148,4226.410156,4197.436035,2458.000000,4.000000,,,,0.000000,4.000000,4.000000,4.000000,4.000000,4.000000,4.000000,4.000000,4.000000,4.000000,4.000000,4.000000,4.000000,4.000000,4.000000,100.000000,,,,,,,,,,,,,,,,,,,,,,,,,,,,,,,,,,,,,,,,,,,,,,,,,,,,,,,,,,,,,,,,,,,,,,,,,,,,,,,,,,
1607646850.311471,106.000000,0.000000,4167.563965,4182.051270,4202.563965,4197.051270,4204.358887,4201.922852,4198.461426,4217.307617,4215.897461,4221.410156,4210.769043,4220.000000,4222.820313,4201.794922,3589.000000,4.000000,,,,0.000000,4.000000,4.000000,4.000000,4.000000,4.000000,4.000000,4.000000,4.000000,4.000000,4.000000,4.000000,4.000000,4.000000,4.000000,100.000000,,,,,,,,,,,,,2.608822,1.729035,0.747608,0.416947,0.160666,0.601799,1.285488,0.694628,0.429556,0.477897,0.187542,0.551274,0.185096,0.133447,0.071805,0.915577,1.501276,0.624239,0.389728,0.334393,0.508481,0.923209,0.351868,0.438094,0.290536,0.459785,0.439935,0.167580,0.121654,0.068489,0.757700,0.713218,0.183622,0.188736,0.049393,0.463405,0.560193,0.358776,0.151433,0.076346,0.514703,0.610534,0.592353,0.373012,0.156735,0.868296,1.146727,0.629699,0.555138,0.437930,0.647756,0.913057,0.369169,0.083061,0.088020,0.435547,0.528769,0.183136,0.187273,0.079736,0.785787,1.317706,0.764038,0.359411,0.119385,0.760771,0.969116,0.277542,0.118000,0.098217
1607646850.319267,107.000000,0.000000,4167.820313,4182.436035,4204.743652,4201.666504,4194.615234,4197.563965,4200.256348,4213.333496,4212.563965,4224.358887,4209.487305,4216.666504,4216.282227,4199.102539,3436.000000,4.000000,,,,0.000000,4.000000,4.000000,4.000000,4.000000,4.000000,4.000000,4.000000,4.000000,4.000000,4.000000,4.000000,4.000000,4.000000,4.000000,100.000000,,,,,,,,,,,,,,,,,,,,,,,,,,,,,,,,,,,,,,,,,,,,,,,,,,,,,,,,,,,,,,,,,,,,,,,,,,,,,,,,,,
1607646850.327063,108.000000,0.000000,4168.461426,4186.282227,4203.974121,4196.794922,4192.948730,4194.615234,4195.512695,4214.871582,4210.897461,4224.102539,4208.846191,4212.820313,4220.512695,4191.922852,2777.000000,4.000000,,,,0.000000,4.000000,4.000000,4.000000,4.000000,4.000000,4.000000,4.000000,4.000000,4.000000,4.000000,4.000000,4.000000,4.000000,4.000000,100.000000,27.000000,0.000000,0.601306,0.106445,-0.791016,0.037354,0.979019,0.085939,-0.291020,-25.271992,-148.043030,-11.215381,,,,,,,,,,,,,,,,,,,,,,,,,,,,,,,,,,,,,,,,,,,,,,,,,,,,,,,,,,,,,,,,,,,,,,
1607646850.334859,109.000000,0.000000,4167.820313,4188.461426,4198.461426,4188.589844,4196.282227,4195.512695,4192.948730,4216.410156,4210.128418,4220.000000,4204.358887,4213.205078,4219.230957,4190.769043,2458.000000,4.000000,,,,0.000000,4.000000,4.000000,4.000000,4.000000,4.000000,4.000000,4.000000,4.000000,4.000000,4.000000,4.000000,4.000000,4.000000,4.000000,100.000000,,,,,,,,,,,,,,,,,,,,,,,,,,,,,,,,,,,,,,,,,,,,,,,,,,,,,,,,,,,,,,,,,,,,,,,,,,,,,,,,,,
1607646850.342555,110.000000,0.000000,4168.589844,4186.922852,4198.974121,4186.794922,4200.641113,4198.846191,4194.871582,4213.974121,4212.820313,4214.358887,4203.461426,4216.153809,4215.512695,4196.153809,3589.000000,4.000000,,,,0.000000,4.000000,4.000000,4.000000,4.000000,4.000000,4.000000,4.000000,4.000000,4.000000,4.000000,4.000000,4.000000,4.000000,4.000000,100.000000,,,,,,,,,,,,,,,,,,,,,,,,,,,,,,,,,,,,,,,,,,,,,,,,,,,,,,,,,,,,,,,,,,,,,,,,,,,,,,,,,,
1607646850.350351,111.000000,0.000000,4174.615234,4188.974121,4209.615234,4196.538574,4206.410156,4204.743652,4197.563965,4216.153809,4218.205078,4224.487305,4214.230957,4220.384766,4226.410156,4202.436035,3436.000000,4.000000,,,,0.000000,4.000000,4.000000,4.000000,4.000000,4.000000,4.000000,4.000000,4.000000,4.000000,4.000000,4.000000,4.000000,4.000000,4.000000,100.000000,,,,,,,,,,,,,,,,,,,,,,,,,,,,,,,,,,,,,,,,,,,,,,,,,,,,,,,,,,,,,,,,,,,,,,,,,,,,,,,,,,
1607646850.358147,112.000000,0.000000,4175.000000,4188.333496,4211.282227,4203.974121,4203.461426,4200.128418,4194.358887,4219.871582,4217.179688,4234.615234,4221.794922,4221.025879,4233.077148,4201.922852,2777.000000,4.000000,,,,0.000000,4.000000,4.000000,4.000000,4.000000,4.000000,4.000000,4.000000,4.000000,4.000000,4.000000,4.000000,4.000000,4.000000,4.000000,100.000000,28.000000,0.000000,0.601493,0.105774,-0.790955,0.037537,0.996597,0.073243,-0.276860,-27.365530,-149.239334,-10.916305,,,,,,,,,,,,,,,,,,,,,,,,,,,,,,,,,,,,,,,,,,,,,,,,,,,,,,,,,,,,,,,,,,,,,,
1607646850.365943,113.000000,0.000000,4168.461426,4184.743652,4202.563965,4198.717773,4198.333496,4187.948730,4186.410156,4218.205078,4209.615234,4221.922852,4215.512695,4217.436035,4222.179688,4195.512695,2458.000000,4.000000,,,,0.000000,4.000000,4.000000,4.000000,4.000000,4.000000,4.000000,4.000000,4.000000,4.000000,4.000000,4.000000,4.000000,4.000000,4.000000,100.000000,,,,,,,,,,,,,,,,,,,,,,,,,,,,,,,,,,,,,,,,,,,,,,,,,,,,,,,,,,,,,,,,,,,,,,,,,,,,,,,,,,
1607646850.373739,114.000000,0.000000,4163.461426,4187.436035,4201.922852,4193.461426,4198.461426,4187.179688,4184.615234,4214.615234,4203.077148,4208.077148,4205.384766,4216.922852,4210.384766,4190.128418,3589.000000,4.000000,,,,0.000000,4.000000,4.000000,4.000000,4.000000,4.000000,4.000000,4.000000,4.000000,4.000000,4.000000,4.000000,4.000000,4.000000,4.000000,100.000000,,,,,,,,,,,,,,,,,,,,,,,,,,,,,,,,,,,,,,,,,,,,,,,,,,,,,,,,,,,,,,,,,,,,,,,,,,,,,,,,,,
1607646850.381535,115.000000,0.000000,4157.179688,4185.256348,4204.871582,4188.717773,4188.846191,4192.948730,4185.512695,4213.974121,4202.563965,4225.000000,4201.025879,4216.410156,4206.410156,4188.461426,3436.000000,4.000000,,,,0.000000,4.000000,4.000000,4.000000,4.000000,4.000000,4.000000,4.000000,4.000000,4.000000,4.000000,4.000000,4.000000,4.000000,4.000000,100.000000,,,,,,,,,,,,,,,,,,,,,,,,,,,,,,,,,,,,,,,,,,,,,,,,,,,,,,,,,,,,,,,,,,,,,,,,,,,,,,,,,,
1607646850.389331,116.000000,0.000000,4154.487305,4182.436035,4201.153809,4185.641113,4182.051270,4195.512695,4185.000000,4213.974121,4203.974121,4241.025879,4203.846191,4213.974121,4207.179688,4189.615234,2777.000000,4.000000,,,,0.000000,4.000000,4.000000,4.000000,4.000000,4.000000,4.000000,4.000000,4.000000,4.000000,4.000000,4.000000,4.000000,4.000000,4.000000,100.000000,29.000000,0.000000,0.601860,0.104919,-0.790771,0.037903,0.983413,0.054688,-0.291508,-25.571070,-149.089798,-11.364920,,,,,,,,,,,,,,,,,,,,,,,,,,,,,,,,,,,,,,,,,,,,,,,,,,,,,,,,,,,,,,,,,,,,,,
1607646850.397127,117.000000,0.000000,4157.563965,4190.769043,4200.769043,4195.769043,4202.307617,4198.077148,4185.128418,4215.128418,4200.641113,4216.282227,4203.846191,4214.102539,4209.358887,4190.512695,2458.000000,4.000000,,,,0.000000,4.000000,4.000000,4.000000,4.000000,4.000000,4.000000,4.000000,4.000000,4.000000,4.000000,4.000000,4.000000,4.000000,4.000000,100.000000,,,,,,,,,,,,,,,,,,,,,,,,,,,,,,,,,,,,,,,,,,,,,,,,,,,,,,,,,,,,,,,,,,,,,,,,,,,,,,,,,,
1607646850.404923,118.000000,0.000000,4155.641113,4191.794922,4203.974121,4200.384766,4218.461426,4202.948730,4187.436035,4217.179688,4203.461426,4202.307617,4199.487305,4214.358887,4211.922852,4189.743652,3589.000000,4.000000,,,,0.000000,4.000000,4.000000,4.000000,4.000000,4.000000,4.000000,4.000000,4.000000,4.000000,4.000000,4.000000,4.000000,4.000000,4.000000,100.000000,,,,,,,,,,,,,,,,,,,,,,,,,,,,,,,,,,,,,,,,,,,,,,,,,,,,,,,,,,,,,,,,,,,,,,,,,,,,,,,,,,
1607646850.412719,119.000000,0.000000,4156.025879,4183.077148,4202.307617,4188.205078,4202.563965,4202.307617,4188.077148,4218.717773,4216.025879,4230.256348,4200.897461,4214.871582,4213.846191,4190.384766,3436.000000,4.000000,,,,0.000000,4.000000,4.000000,4.000000,4.000000,4.000000,4.000000,4.000000,4.000000,4.000000,4.000000,4.000000,4.000000,4.000000,4.000000,100.000000,,,,,,,,,,,,,,,,,,,,,,,,,,,,,,,,,,,,,,,,,,,,,,,,,,,,,,,,,,,,,,,,,,,,,,,,,,,,,,,,,,
1607646850.420415,120.000000,0.000000,4163.077148,4186.025879,4200.128418,4188.461426,4191.666504,4199.487305,4186.794922,4220.384766,4217.179688,4241.282227,4205.256348,4217.179688,4212.563965,4193.461426,2777.000000,4.000000,,,,0.000000,4.000000,4.000000,4.000000,4.000000,4.000000,4.000000,4.000000,4.000000,4.000000,4.000000,4.000000,4.000000,4.000000,4.000000,100.000000,30.000000,0.000000,0.601991,0.104248,-0.790710,0.038940,0.979019,0.036622,-0.284184,-25.720608,-149.239334,-12.411689,,,,,,,,,,,,,,,,,,,,,,,,,,,,,,,,,,,,,,,,,,,,,,,,,,,,,,,,,,,,,,,,,,,,,,
1607646850.428211,121.000000,0.000000,4161.153809,4187.307617,4200.384766,4202.948730,4201.666504,4199.743652,4185.641113,4214.230957,4204.230957,4218.077148,4202.436035,4216.794922,4205.128418,4192.692383,2458.000000,4.000000,,,,0.000000,4.000000,4.000000,4.000000,4.000000,4.000000,4.000000,4.000000,4.000000,4.000000,4.000000,4.000000,4.000000,4.000000,4.000000,100.000000,,,,,,,,,,,,,,,,,,,,,,,,,,,,,,,,,,,,,,,,,,,,,,,,,,,,,,,,,,,,,,,,,,,,,,,,,,,,,,,,,,
1607646850.435907,122.000000,0.000000,4158.717773,4186.153809,4202.436035,4203.589844,4205.384766,4198.589844,4185.512695,4206.922852,4202.051270,4211.538574,4201.025879,4215.512695,4207.307617,4192.051270,3589.000000,4.000000,,,,0.000000,4.000000,4.000000,4.000000,4.000000,4.000000,4.000000,4.000000,4.000000,4.000000,4.000000,4.000000,4.000000,4.000000,4.000000,100.000000,,,,,,,,,,,,,1.965729,1.478923,0.566785,0.352297,0.161185,0.730623,1.393362,0.618680,0.465983,0.521991,0.276703,0.580719,0.209267,0.142465,0.085215,0.807173,1.410245,0.701588,0.355319,0.335461,0.550679,0.944558,0.286974,0.472080,0.262003,0.383026,0.295755,0.167225,0.102457,0.062016,0.664180,0.549938,0.194620,0.166055,0.049524,0.440646,0.449245,0.326517,0.122266,0.076316,0.701831,0.598882,0.514644,0.364841,0.145335,1.050378,1.139521,0.617472,0.550566,0.429442,0.675093,0.891284,0.349193,0.083162,0.094909,0.360988,0.544198,0.149555,0.154286,0.078801,0.742598,1.365221,0.739254,0.361378,0.117757,0.743320,0.997707,0.265416,0.112822,0.094522
1607646850.443703,123.000000,0.000000,4168.846191,4200.769043,4203.461426,4193.717773,4200.384766,4196.153809,4185.256348,4213.333496,4209.230957,4222.051270,4204.358887,4218.205078,4215.256348,4199.871582,3436.000000,4.000000,,,,0.000000,4.000000,4.000000,4.000000,4.000000,4.000000,4.000000,4.000000,4.000000,4.000000,4.000000,4.000000,4.000000,4.000000,4.000000,100.000000,,,,,,,,,,,,,,,,,,,,,,,,,,,,,,,,,,,,,,,,,,,,,,,,,,,,,,,,,,,,,,,,,,,,,,,,,,,,,,,,,,
1607646850.451499,124.000000,0.000000,4171.025879,4202.051270,4202.820313,4187.692383,4201.410156,4195.769043,4183.717773,4217.307617,4205.384766,4222.563965,4203.205078,4219.487305,4207.948730,4200.897461,2777.000000,4.000000,,,,0.000000,4.000000,4.000000,4.000000,4.000000,4.000000,4.000000,4.000000,4.000000,4.000000,4.000000,4.000000,4.000000,4.000000,4.000000,100.000000,31.000000,0.000000,0.602128,0.103760,-0.790649,0.039368,0.992203,0.044434,-0.285161,-25.122454,-148.342102,-11.813535,,,,,,,,,,,,,,,,,,,,,,,,,,,,,,,,,,,,,,,,,,,,,,,,,,,,,,,,,,,,,,,,,,,,,,
1607646850.459295,125.000000,0.000000,4165.000000,4183.589844,4202.692383,4189.615234,4202.436035,4197.051270,4184.615234,4207.948730,4198.205078,4214.743652,4201.922852,4217.179688,4198.846191,4192.820313,2458.000000,4.000000,,,,0.000000,4.000000,4.000000,4.000000,4.000000,4.000000,4.000000,4.000000,4.000000,4.000000,4.000000,4.000000,4.000000,4.000000,4.000000,100.000000,,,,,,,,,,,,,,,,,,,,,,,,,,,,,,,,,,,,,,,,,,,,,,,,,,,,,,,,,,,,,,,,,,,,,,,,,,,,,,,,,,
1607646850.467091,126.000000,0.000000,4168.077148,4187.820313,4201.922852,4192.179688,4200.384766,4194.102539,4183.205078,4199.487305,4201.282227,4205.128418,4201.666504,4215.769043,4202.051270,4190.897461,3589.000000,4.000000,,,,0.000000,4.000000,4.000000,4.000000,4.000000,4.000000,4.000000,4.000000,4.000000,4.000000,4.000000,4.000000,4.000000,4.000000,4.000000,100.000000,,,,,,,,,,,,,,,,,,,,,,,,,,,,,,,,,,,,,,,,,,,,,,,,,,,,,,,,,,,,,,,,,,,,,,,,,,,,,,,,,,
1607646850.474887,127.000000,0.000000,4164.358887,4199.358887,4198.846191,4185.769043,4193.077148,4185.641113,4171.666504,4193.974121,4196.794922,4201.794922,4191.538574,4212.820313,4198.589844,4188.974121,58.000000,4.000000,,,,0.000000,4.000000,4.000000,4.000000,4.000000,4.000000,4.000000,4.000000,4.000000,4.000000,4.000000,4.000000,4.000000,4.000000,4.000000,100.000000,,,,,,,,,,,,,,,,,,,,,,,,,,,,,,,,,,,,,,,,,,,,,,,,,,,,,,,,,,,,,,,,,,,,,,,,,,,,,,,,,,
1607646850.482683,0.000000,0.000000,4155.897461,4191.410156,4197.051270,4185.512695,4184.102539,4185.000000,4164.230957,4190.512695,4187.692383,4203.205078,4183.589844,4207.692383,4191.538574,4185.256348,2886.000000,4.000000,,,,0.000000,4.000000,4.000000,4.000000,4.000000,4.000000,4.000000,4.000000,4.000000,4.000000,4.000000,4.000000,4.000000,4.000000,4.000000,100.000000,0.000000,0.000000,0.602686,0.102295,-0.790405,0.039551,0.984390,0.039551,-0.278813,-26.169222,-149.987030,-10.916305,,,,,,,,,,,,,,,,,,,,,,,,,,,,,,,,,,,,,,,,,,,,,,,,,,,,,,,,,,,,,,,,,,,,,,
1607646850.490480,1.000000,0.000000,4163.461426,4189.615234,4200.256348,4199.487305,4191.922852,4193.589844,4175.000000,4197.563965,4189.743652,4201.410156,4191.922852,4209.871582,4198.717773,4191.025879,2908.000000,4.000000,,,,0.000000,4.000000,4.000000,4.000000,4.000000,4.000000,4.000000,4.000000,4.000000,4.000000,4.000000,4.000000,4.000000,4.000000,4.000000,100.000000,,,,,,,,,,,,,,,,,,,,,,,,,,,,,,,,,,,,,,,,,,,,,,,,,,,,,,,,,,,,,,,,,,,,,,,,,,,,,,,,,,
1607646850.498176,2.000000,0.000000,4172.948730,4194.358887,4203.333496,4208.717773,4205.128418,4196.538574,4182.820313,4202.436035,4192.948730,4202.692383,4199.487305,4216.666504,4206.153809,4200.256348,3424.000000,4.000000,,,,0.000000,4.000000,4.000000,4.000000,4.000000,4.000000,4.000000,4.000000,4.000000,4.000000,4.000000,4.000000,4.000000,4.000000,4.000000,100.000000,,,,,,,,,,,,,,,,,,,,,,,,,,,,,,,,,,,,,,,,,,,,,,,,,,,,,,,,,,,,,,,,,,,,,,,,,,,,,,,,,,
1607646850.505972,3.000000,0.000000,4169.743652,4186.922852,4202.436035,4202.692383,4199.102539,4192.051270,4174.230957,4198.589844,4194.358887,4206.153809,4197.948730,4216.538574,4201.025879,4200.000000,3523.000000,4.000000,,,,0.000000,4.000000,4.000000,4.000000,4.000000,4.000000,4.000000,4.000000,4.000000,4.000000,4.000000,4.000000,4.000000,4.000000,4.000000,100.000000,,,,,,,,,,,,,,,,,,,,,,,,,,,,,,,,,,,,,,,,,,,,,,,,,,,,,,,,,,,,,,,,,,,,,,,,,,,,,,,,,,
1607646850.513768,4.000000,0.000000,4165.384766,4188.333496,4200.769043,4189.743652,4193.846191,4192.563965,4170.000000,4197.692383,4198.589844,4205.000000,4198.333496,4212.436035,4198.974121,4193.717773,3641.000000,4.000000,,,,0.000000,4.000000,4.000000,4.000000,4.000000,4.000000,4.000000,4.000000,4.000000,4.000000,4.000000,4.000000,4.000000,4.000000,4.000000,100.000000,1.000000,0.000000,0.603413,0.100830,-0.790039,0.039551,0.995621,0.039551,-0.284184,-26.019684,-149.388870,-12.262150,,,,,,,,,,,,,,,,,,,,,,,,,,,,,,,,,,,,,,,,,,,,,,,,,,,,,,,,,,,,,,,,,,,,,,
1607646850.521564,5.000000,0.000000,4167.179688,4203.589844,4200.384766,4191.538574,4206.410156,4200.000000,4178.205078,4199.871582,4200.897461,4209.230957,4200.256348,4212.051270,4203.077148,4195.897461,3438.000000,4.000000,,,,0.000000,4.000000,4.000000,4.000000,4.000000,4.000000,4.000000,4.000000,4.000000,4.000000,4.000000,4.000000,4.000000,4.000000,4.000000,100.000000,,,,,,,,,,,,,,,,,,,,,,,,,,,,,,,,,,,,,,,,,,,,,,,,,,,,,,,,,,,,,,,,,,,,,,,,,,,,,,,,,,
1607646850.529360,6.000000,0.000000,4168.846191,4205.128418,4202.179688,4199.871582,4208.589844,4204.358887,4185.128418,4200.256348,4200.256348,4219.871582,4201.794922,4214.102539,4204.743652,4202.307617,3310.000000,4.000000,,,,0.000000,4.000000,4.000000,4.000000,4.000000,4.000000,4.000000,4.000000,4.000000,4.000000,4.000000,4.000000,4.000000,4.000000,4.000000,100.000000,,,,,,,,,,,,,,,,,,,,,,,,,,,,,,,,,,,,,,,,,,,,,,,,,,,,,,,,,,,,,,,,,,,,,,,,,,,,,,,,,,
1607646850.537156,7.000000,0.000000,4164.743652,4190.769043,4203.846191,4194.102539,4192.948730,4200.384766,4181.794922,4200.128418,4198.846191,4218.589844,4197.820313,4216.025879,4203.846191,4197.179688,3143.000000,4.000000,,,,0.000000,4.000000,4.000000,4.000000,4.000000,4.000000,4.000000,4.000000,4.000000,4.000000,4.000000,4.000000,4.000000,4.000000,4.000000,100.000000,,,,,,,,,,,,,,,,,,,,,,,,,,,,,,,,,,,,,,,,,,,,,,,,,,,,,,,,,,,,,,,,,,,,,,,,,,,,,,,,,,
1607646850.544952,8.000000,0.000000,4156.794922,4182.563965,4200.512695,4184.487305,4187.307617,4190.000000,4172.820313,4197.307617,4193.461426,4201.794922,4190.000000,4212.563965,4199.358887,4186.282227,3471.000000,4.000000,,,,0.000000,4.000000,4.000000,4.000000,4.000000,4.000000,4.000000,4.000000,4.000000,4.000000,4.000000,4.000000,4.000000,4.000000,4.000000,100.000000,2.000000,0.000000,0.604384,0.099060,-0.789551,0.038940,1.009781,0.047852,-0.280766,-25.571070,-148.342102,-11.813535,,,,,,,,,,,,,,,,,,,,,,,,,,,,,,,,,,,,,,,,,,,,,,,,,,,,,,,,,,,,,,,,,,,,,,
1607646850.552748,9.000000,0.000000,4153.333496,4183.846191,4195.641113,4185.384766,4186.666504,4183.589844,4167.948730,4196.922852,4192.051270,4194.102539,4189.102539,4204.743652,4193.974121,4183.205078,3638.000000,4.000000,,,,0.000000,4.000000,4.000000,4.000000,4.000000,4.000000,4.000000,4.000000,4.000000,4.000000,4.000000,4.000000,4.000000,4.000000,4.000000,100.000000,,,,,,,,,,,,,,,,,,,,,,,,,,,,,,,,,,,,,,,,,,,,,,,,,,,,,,,,,,,,,,,,,,,,,,,,,,,,,,,,,,
1607646850.560444,10.000000,0.000000,4157.179688,4190.128418,4198.333496,4193.461426,4185.641113,4186.282227,4169.358887,4200.256348,4199.743652,4210.384766,4192.692383,4207.051270,4196.410156,4186.666504,3590.000000,4.000000,,,,0.000000,4.000000,4.000000,4.000000,4.000000,4.000000,4.000000,4.000000,4.000000,4.000000,4.000000,4.000000,4.000000,4.000000,4.000000,100.000000,,,,,,,,,,,,,1.961053,1.182072,0.454877,0.297837,0.161158,0.851781,1.393176,0.509127,0.478780,0.582635,0.402216,0.546384,0.231952,0.143235,0.096874,0.714215,1.187074,0.781089,0.326984,0.335581,0.574408,0.890111,0.226788,0.482050,0.242489,0.318749,0.202544,0.182083,0.090411,0.059265,0.551958,0.408020,0.198845,0.134905,0.050827,0.441235,0.346412,0.296096,0.103499,0.081986,0.935211,0.576828,0.432058,0.345823,0.135517,1.331545,1.067498,0.608449,0.526547,0.427720,0.883656,0.791405,0.307204,0.094729,0.101650,0.364096,0.512248,0.117333,0.122717,0.076121,0.986154,1.306246,0.683461,0.371148,0.118600,0.906345,0.940924,0.252398,0.119465,0.090473
1607646850.568240,11.000000,0.000000,4164.358887,4200.000000,4201.410156,4201.666504,4195.512695,4186.666504,4168.846191,4200.769043,4200.512695,4219.487305,4191.410156,4216.410156,4202.692383,4192.948730,3433.000000,4.000000,,,,0.000000,4.000000,4.000000,4.000000,4.000000,4.000000,4.000000,4.000000,4.000000,4.000000,4.000000,4.000000,4.000000,4.000000,4.000000,100.000000,,,,,,,,,,,,,,,,,,,,,,,,,,,,,,,,,,,,,,,,,,,,,,,,,,,,,,,,,,,,,,,,,,,,,,,,,,,,,,,,,,
1607646850.576036,12.000000,0.000000,4168.974121,4198.974121,4198.333496,4206.153809,4202.307617,4184.871582,4171.025879,4200.000000,4198.461426,4209.487305,4187.948730,4216.153809,4199.102539,4196.922852,2771.000000,4.000000,,,,0.000000,4.000000,4.000000,4.000000,4.000000,4.000000,4.000000,4.000000,4.000000,4.000000,4.000000,4.000000,4.000000,4.000000,4.000000,100.000000,3.000000,0.000000,0.605320,0.097839,-0.789063,0.037354,1.012223,0.053712,-0.268559,-26.617838,-148.491638,-11.215381,,,,,,,,,,,,,,,,,,,,,,,,,,,,,,,,,,,,,,,,,,,,,,,,,,,,,,,,,,,,,,,,,,,,,,
1607646850.583832,13.000000,0.000000,4166.666504,4187.436035,4197.692383,4196.410156,4197.563965,4189.230957,4180.128418,4200.641113,4201.282227,4211.794922,4188.333496,4210.256348,4191.922852,4192.179688,2453.000000,4.000000,,,,0.000000,4.000000,4.000000,4.000000,4.000000,4.000000,4.000000,4.000000,4.000000,4.000000,4.000000,4.000000,4.000000,4.000000,4.000000,100.000000,,,,,,,,,,,,,,,,,,,,,,,,,,,,,,,,,,,,,,,,,,,,,,,,,,,,,,,,,,,,,,,,,,,,,,,,,,,,,,,,,,
1607646850.591628,14.000000,0.000000,4166.153809,4190.128418,4200.384766,4187.692383,4196.538574,4193.205078,4179.871582,4200.512695,4201.538574,4217.692383,4190.256348,4211.025879,4195.000000,4186.538574,3590.000000,4.000000,,,,0.000000,4.000000,4.000000,4.000000,4.000000,4.000000,4.000000,4.000000,4.000000,4.000000,4.000000,4.000000,4.000000,4.000000,4.000000,100.000000,,,,,,,,,,,,,,,,,,,,,,,,,,,,,,,,,,,,,,,,,,,,,,,,,,,,,,,,,,,,,,,,,,,,,,,,,,,,,,,,,,
1607646850.599424,15.000000,0.000000,4171.666504,4208.846191,4203.974121,4192.436035,4205.256348,4192.436035,4175.769043,4202.051270,4202.051270,4206.153809,4191.538574,4213.205078,4201.282227,4190.897461,3433.000000,4.000000,,,,0.000000,4.000000,4.000000,4.000000,4.000000,4.000000,4.000000,4.000000,4.000000,4.000000,4.000000,4.000000,4.000000,4.000000,4.000000,100.000000,,,,,,,,,,,,,,,,,,,,,,,,,,,,,,,,,,,,,,,,,,,,,,,,,,,,,,,,,,,,,,,,,,,,,,,,,,,,,,,,,,
1607646850.607220,16.000000,0.000000,4167.692383,4202.179688,4198.974121,4198.077148,4199.743652,4189.871582,4177.179688,4197.692383,4197.692383,4198.333496,4188.974121,4206.153809,4194.358887,4189.358887,0.000000,4.000000,,,,0.000000,4.000000,4.000000,4.000000,4.000000,4.000000,4.000000,4.000000,4.000000,4.000000,4.000000,4.000000,4.000000,4.000000,4.000000,100.000000,4.000000,0.000000,0.605817,0.097839,-0.788757,0.035706,1.018570,0.073732,-0.273930,-26.318762,-148.641190,-12.561227,,,,,,,,,,,,,,,,,,,,,,,,,,,,,,,,,,,,,,,,,,,,,,,,,,,,,,,,,,,,,,,,,,,,,,
1607646850.615017,17.000000,0.000000,4158.077148,4179.871582,4186.282227,4199.230957,4184.102539,4187.307617,4173.461426,4188.846191,4184.615234,4200.769043,4182.436035,4197.948730,4183.333496,4180.384766,0.000000,4.000000,,,,0.000000,4.000000,4.000000,4.000000,4.000000,4.000000,4.000000,4.000000,4.000000,4.000000,4.000000,4.000000,4.000000,4.000000,4.000000,100.000000,,,,,,,,,,,,,,,,,,,,,,,,,,,,,,,,,,,,,,,,,,,,,,,,,,,,,,,,,,,,,,,,,,,,,,,,,,,,,,,,,,
1607646850.622813,18.000000,0.000000,4164.615234,4188.077148,4188.846191,4197.692383,4189.743652,4190.000000,4169.102539,4192.692383,4187.179688,4199.743652,4186.025879,4206.922852,4189.871582,4186.922852,0.000000,4.000000,,,,0.000000,4.000000,4.000000,4.000000,4.000000,4.000000,4.000000,4.000000,4.000000,4.000000,4.000000,4.000000,4.000000,4.000000,4.000000,100.000000,,,,,,,,,,,,,,,,,,,,,,,,,,,,,,,,,,,,,,,,,,,,,,,,,,,,,,,,,,,,,,,,,,,,,,,,,,,,,,,,,,
1607646850.630609,19.000000,0.000000,4178.846191,4208.461426,4201.794922,4197.692383,4203.589844,4192.307617,4172.692383,4202.948730,4202.179688,4201.025879,4193.333496,4214.230957,4201.794922,4201.922852,0.000000,4.000000,,,,0.000000,4.000000,4.000000,4.000000,4.000000,4.000000,4.000000,4.000000,4.000000,4.000000,4.000000,4.000000,4.000000,4.000000,4.000000,100.000000,,,,,,,,,,,,,,,,,,,,,,,,,,,,,,,,,,,,,,,,,,,,,,,,,,,,,,,,,,,,,,,,,,,,,,,,,,,,,,,,,,
1607646850.638305,20.000000,0.000000,4182.307617,4206.153809,4202.563965,4200.128418,4204.487305,4188.205078,4174.487305,4200.769043,4197.948730,4204.358887,4190.128418,4206.666504,4201.282227,4199.487305,0.000000,4.000000,,,,0.000000,4.000000,4.000000,4.000000,4.000000,4.000000,4.000000,4.000000,4.000000,4.000000,4.000000,4.000000,4.000000,4.000000,4.000000,100.000000,5.000000,0.000000,0.605749,0.098694,-0.788757,0.034485,0.987808,0.092287,-0.273442,-26.019684,-147.893494,-13.009842,,,,,,,,,,,,,,,,,,,,,,,,,,,,,,,,,,,,,,,,,,,,,,,,,,,,,,,,,,,,,,,,,,,,,,
1607646850.646101,21.000000,0.000000,4181.922852,4198.589844,4198.717773,4203.205078,4198.333496,4185.769043,4170.384766,4196.282227,4187.179688,4200.769043,4190.512695,4203.974121,4201.025879,4190.000000,0.000000,4.000000,,,,0.000000,4.000000,4.000000,4.000000,4.000000,4.000000,4.000000,4.000000,4.000000,4.000000,4.000000,4.000000,4.000000,4.000000,4.000000,100.000000,,,,,,,,,,,,,,,,,,,,,,,,,,,,,,,,,,,,,,,,,,,,,,,,,,,,,,,,,,,,,,,,,,,,,,,,,,,,,,,,,,
1607646850.653897,22.000000,0.000000,4186.282227,4201.282227,4201.794922,4200.897461,4194.358887,4185.897461,4171.153809,4201.153809,4195.641113,4198.205078,4196.153809,4208.333496,4204.230957,4189.743652,0.000000,4.000000,,,,0.000000,4.000000,4.000000,4.000000,4.000000,4.000000,4.000000,4.000000,4.000000,4.000000,4.000000,4.000000,4.000000,4.000000,4.000000,100.000000,,,,,,,,,,,,,,,,,,,,,,,,,,,,,,,,,,,,,,,,,,,,,,,,,,,,,,,,,,,,,,,,,,,,,,,,,,,,,,,,,,
1607646850.661693,23.000000,0.000000,4186.410156,4198.461426,4199.487305,4195.512695,4193.461426,4186.025879,4176.794922,4203.846191,4202.948730,4199.487305,4191.666504,4208.846191,4200.384766,4189.230957,0.000000,4.000000,,,,0.000000,4.000000,4.000000,4.000000,4.000000,4.000000,4.000000,4.000000,4.000000,4.000000,4.000000,4.000000,4.000000,4.000000,4.000000,100.000000,,,,,,,,,,,,,,,,,,,,,,,,,,,,,,,,,,,,,,,,,,,,,,,,,,,,,,,,,,,,,,,,,,,,,,,,,,,,,,,,,,
1607646850.669489,24.000000,0.000000,4184.615234,4195.256348,4197.692383,4196.794922,4197.692383,4192.948730,4183.333496,4202.692383,4200.512695,4204.871582,4190.897461,4209.615234,4203.846191,4192.307617,0.000000,4.000000,,,,0.000000,4.000000,4.000000,4.000000,4.000000,4.000000,4.000000,4.000000,4.000000,4.000000,4.000000,4.000000,4.000000,4.000000,4.000000,100.000000,6.000000,0.000000,0.606072,0.098389,-0.788574,0.033875,0.958999,0.073732,-0.279789,-25.571070,-148.342102,-13.009842,,,,,,,,,,,,,,,,,,,,,,,,,,,,,,,,,,,,,,,,,,,,,,,,,,,,,,,,,,,,,,,,,,,,,,
1607646850.677285,25.000000,0.000000,4188.717773,4204.871582,4203.846191,4198.077148,4201.025879,4201.410156,4187.051270,4204.487305,4202.692383,4212.820313,4202.692383,4215.897461,4216.922852,4202.820313,0.000000,4.000000,,,,0.000000,4.000000,4.000000,4.000000,4.000000,4.000000,4.000000,4.000000,4.000000,4.000000,4.000000,4.000000,4.000000,4.000000,4.000000,100.000000,,,,,,,,,,,,,,,,,,,,,,,,,,,,,,,,,,,,,,,,,,,,,,,,,,,,,,,,,,,,,,,,,,,,,,,,,,,,,,,,,,
1607646850.685081,26.000000,0.000000,4190.641113,4208.589844,4205.641113,4198.589844,4200.256348,4201.794922,4185.897461,4205.769043,4204.487305,4213.974121,4203.846191,4217.051270,4217.820313,4202.948730,0.000000,4.000000,,,,0.000000,4.000000,4.000000,4.000000,4.000000,4.000000,4.000000,4.000000,4.000000,4.000000,4.000000,4.000000,4.000000,4.000000,4.000000,100.000000,,,,,,,,,,,,,2.637140,0.901428,0.409764,0.259528,0.157943,0.934257,1.298067,0.407735,0.464693,0.641459,0.558164,0.462519,0.248523,0.137073,0.104947,0.685094,0.899870,0.842559,0.304534,0.333202,0.570591,0.768964,0.179105,0.477361,0.236988,0.262781,0.163932,0.211606,0.092833,0.061239,0.439911,0.312586,0.195919,0.103216,0.052421,0.469481,0.281249,0.267162,0.097345,0.090465,1.201255,0.570224,0.354392,0.323775,0.133396,1.685528,0.958883,0.591802,0.484765,0.436853,1.262162,0.645772,0.259342,0.117270,0.108477,0.473508,0.445355,0.095779,0.099250,0.071774,1.379080,1.170867,0.599773,0.387505,0.121968,1.158050,0.814652,0.244087,0.137436,0.086710
1607646850.692877,27.000000,0.000000,4188.974121,4202.436035,4207.179688,4204.871582,4203.846191,4198.846191,4185.384766,4204.487305,4205.512695,4215.256348,4199.615234,4216.794922,4214.615234,4198.717773,0.000000,4.000000,,,,0.000000,4.000000,4.000000,4.000000,4.000000,4.000000,4.000000,4.000000,4.000000,4.000000,4.000000,4.000000,4.000000,4.000000,4.000000,100.000000,,,,,,,,,,,,,,,,,,,,,,,,,,,,,,,,,,,,,,,,,,,,,,,,,,,,,,,,,,,,,,,,,,,,,,,,,,,,,,,,,,
1607646850.700673,28.000000,0.000000,4190.000000,4204.743652,4209.102539,4200.000000,4202.563965,4192.948730,4181.922852,4203.077148,4205.384766,4215.769043,4203.717773,4218.205078,4219.487305,4203.974121,0.000000,4.000000,,,,0.000000,4.000000,4.000000,4.000000,4.000000,4.000000,4.000000,4.000000,4.000000,4.000000,4.000000,4.000000,4.000000,4.000000,4.000000,100.000000,7.000000,0.000000,0.606979,0.096191,-0.788147,0.033875,0.985855,0.061524,-0.266117,-25.720608,-149.687958,-12.710765,,,,,,,,,,,,,,,,,,,,,,,,,,,,,,,,,,,,,,,,,,,,,,,,,,,,,,,,,,,,,,,,,,,,,,
1607646850.708469,29.000000,0.000000,4188.846191,4217.307617,4205.641113,4188.589844,4196.025879,4189.358887,4179.230957,4202.563965,4200.641113,4207.051270,4200.897461,4215.384766,4217.436035,4206.538574,0.000000,4.000000,,,,0.000000,4.000000,4.000000,4.000000,4.000000,4.000000,4.000000,4.000000,4.000000,4.000000,4.000000,4.000000,4.000000,4.000000,4.000000,100.000000,,,,,,,,,,,,,,,,,,,,,,,,,,,,,,,,,,,,,,,,,,,,,,,,,,,,,,,,,,,,,,,,,,,,,,,,,,,,,,,,,,
1607646850.716165,30.000000,0.000000,4184.102539,4214.102539,4201.410156,4195.256348,4202.051270,4195.512695,4180.128418,4200.641113,4198.589844,4200.384766,4196.666504,4213.589844,4208.333496,4201.794922,0.000000,4.000000,,,,0.000000,4.000000,4.000000,4.000000,4.000000,4.000000,4.000000,4.000000,4.000000,4.000000,4.000000,4.000000,4.000000,4.000000,4.000000,100.000000,,,,,,,,,,,,,,,,,,,,,,,,,,,,,,,,,,,,,,,,,,,,,,,,,,,,,,,,,,,,,,,,,,,,,,,,,,,,,,,,,,
1607646850.723961,31.000000,0.000000,4184.102539,4199.102539,4202.563965,4208.077148,4206.794922,4196.922852,4176.153809,4199.358887,4202.563965,4200.256348,4196.025879,4213.333496,4205.384766,4201.666504,0.000000,4.000000,,,,0.000000,4.000000,4.000000,4.000000,4.000000,4.000000,4.000000,4.000000,4.000000,4.000000,4.000000,4.000000,4.000000,4.000000,4.000000,100.000000,,,,,,,,,,,,,,,,,,,,,,,,,,,,,,,,,,,,,,,,,,,,,,,,,,,,,,,,,,,,,,,,,,,,,,,,,,,,,,,,,,
1607646850.731757,32.000000,0.000000,4189.487305,4202.948730,4203.461426,4198.205078,4197.820313,4187.563965,4171.282227,4201.282227,4202.948730,4200.256348,4190.000000,4213.846191,4204.230957,4202.179688,0.000000,4.000000,,,,0.000000,4.000000,4.000000,4.000000,4.000000,4.000000,4.000000,4.000000,4.000000,4.000000,4.000000,4.000000,4.000000,4.000000,4.000000,100.000000,8.000000,0.000000,0.607535,0.095093,-0.787842,0.034119,1.013687,0.051759,-0.256352,-26.318762,-149.089798,-11.065843,,,,,,,,,,,,,,,,,,,,,,,,,,,,,,,,,,,,,,,,,,,,,,,,,,,,,,,,,,,,,,,,,,,,,,
1607646850.739554,33.000000,0.000000,4189.743652,4215.512695,4201.025879,4184.871582,4198.717773,4182.563965,4170.769043,4201.666504,4198.974121,4202.179688,4187.436035,4212.051270,4201.025879,4200.897461,0.000000,4.000000,,,,0.000000,4.000000,4.000000,4.000000,4.000000,4.000000,4.000000,4.000000,4.000000,4.000000,4.000000,4.000000,4.000000,4.000000,4.000000,100.000000,,,,,,,,,,,,,,,,,,,,,,,,,,,,,,,,,,,,,,,,,,,,,,,,,,,,,,,,,,,,,,,,,,,,,,,,,,,,,,,,,,
1607646850.747350,34.000000,0.000000,4186.410156,4212.307617,4201.153809,4194.487305,4202.563965,4187.179688,4171.410156,4200.000000,4197.051270,4202.179688,4189.358887,4211.410156,4198.974121,4199.743652,0.000000,4.000000,,,,0.000000,4.000000,4.000000,4.000000,4.000000,4.000000,4.000000,4.000000,4.000000,4.000000,4.000000,4.000000,4.000000,4.000000,4.000000,100.000000,,,,,,,,,,,,,,,,,,,,,,,,,,,,,,,,,,,,,,,,,,,,,,,,,,,,,,,,,,,,,,,,,,,,,,,,,,,,,,,,,,
1607646850.755146,35.000000,0.000000,4187.820313,4200.641113,4202.307617,4202.820313,4185.512695,4191.538574,4171.282227,4198.717773,4194.487305,4199.102539,4185.384766,4211.282227,4196.794922,4198.077148,0.000000,4.000000,,,,0.000000,4.000000,4.000000,4.000000,4.000000,4.000000,4.000000,4.000000,4.000000,4.000000,4.000000,4.000000,4.000000,4.000000,4.000000,100.000000,,,,,,,,,,,,,,,,,,,,,,,,,,,,,,,,,,,,,,,,,,,,,,,,,,,,,,,,,,,,,,,,,,,,,,,,,,,,,,,,,,
1607646850.762942,36.000000,0.000000,4191.666504,4201.794922,4203.077148,4192.820313,4182.436035,4189.358887,4173.846191,4200.512695,4194.615234,4210.256348,4188.205078,4212.563965,4199.358887,4199.615234,0.000000,4.000000,,,,0.000000,4.000000,4.000000,4.000000,4.000000,4.000000,4.000000,4.000000,4.000000,4.000000,4.000000,4.000000,4.000000,4.000000,4.000000,100.000000,9.000000,0.000000,0.608320,0.093445,-0.787415,0.034546,1.009293,0.059571,-0.236332,-24.972916,-148.940262,-12.411689,,,,,,,,,,,,,,,,,,,,,,,,,,,,,,,,,,,,,,,,,,,,,,,,,,,,,,,,,,,,,,,,,,,,,,
1607646850.770738,37.000000,0.000000,4189.230957,4210.000000,4201.538574,4185.512695,4200.897461,4187.436035,4177.307617,4202.820313,4199.230957,4222.436035,4197.179688,4216.282227,4204.230957,4202.820313,0.000000,4.000000,,,,0.000000,4.000000,4.000000,4.000000,4.000000,4.000000,4.000000,4.000000,4.000000,4.000000,4.000000,4.000000,4.000000,4.000000,4.000000,100.000000,,,,,,,,,,,,,,,,,,,,,,,,,,,,,,,,,,,,,,,,,,,,,,,,,,,,,,,,,,,,,,,,,,,,,,,,,,,,,,,,,,
1607646850.778434,38.000000,0.000000,4183.333496,4204.615234,4199.230957,4184.358887,4198.333496,4193.974121,4182.179688,4204.230957,4201.153809,4210.641113,4191.025879,4211.922852,4196.922852,4200.897461,0.000000,4.000000,,,,0.000000,4.000000,4.000000,4.000000,4.000000,4.000000,4.000000,4.000000,4.000000,4.000000,4.000000,4.000000,4.000000,4.000000,4.000000,100.000000,,,,,,,,,,,,,,,,,,,,,,,,,,,,,,,,,,,,,,,,,,,,,,,,,,,,,,,,,,,,,,,,,,,,,,,,,,,,,,,,,,
1607646850.786230,39.000000,0.000000,4183.717773,4197.948730,4200.512695,4180.897461,4188.589844,4195.897461,4185.128418,4204.230957,4200.256348,4202.179688,4183.461426,4208.333496,4190.769043,4198.205078,0.000000,4.000000,,,,0.000000,4.000000,4.000000,4.000000,4.000000,4.000000,4.000000,4.000000,4.000000,4.000000,4.000000,4.000000,4.000000,4.000000,4.000000,100.000000,,,,,,,,,,,,,,,,,,,,,,,,,,,,,,,,,,,,,,,,,,,,,,,,,,,,,,,,,,,,,,,,,,,,,,,,,,,,,,,,,,
1607646850.794026,40.000000,0.000000,4183.717773,4207.692383,4202.179688,4186.538574,4200.128418,4189.230957,4183.205078,4201.922852,4201.282227,4211.538574,4187.563965,4211.282227,4198.717773,4199.230957,0.000000,4.000000,,,,0.000000,4.000000,4.000000,4.000000,4.000000,4.000000,4.000000,4.000000,4.000000,4.000000,4.000000,4.000000,4.000000,4.000000,4.000000,100.000000,10.000000,0.000000,0.608833,0.092712,-0.787109,0.034424,1.011246,0.062013,-0.253422,-25.271992,-148.491638,-10.916305,,,,,,,,,,,,,,,,,,,,,,,,,,,,,,,,,,,,,,,,,,,,,,,,,,,,,,,,,,,,,,,,,,,,,,
1607646850.801822,41.000000,0.000000,4182.820313,4214.615234,4201.538574,4201.153809,4202.563965,4191.410156,4182.436035,4201.666504,4202.692383,4214.743652,4189.743652,4212.692383,4199.358887,4199.871582,0.000000,4.000000,,,,0.000000,4.000000,4.000000,4.000000,4.000000,4.000000,4.000000,4.000000,4.000000,4.000000,4.000000,4.000000,4.000000,4.000000,4.000000,100.000000,,,,,,,,,,,,,,,,,,,,,,,,,,,,,,,,,,,,,,,,,,,,,,,,,,,,,,,,,,,,,,,,,,,,,,,,,,,,,,,,,,
1607646850.809618,42.000000,0.000000,4192.436035,4209.871582,4201.794922,4205.769043,4197.563965,4200.256348,4185.256348,4204.743652,4202.563965,4212.307617,4193.461426,4212.820313,4195.384766,4200.512695,0.000000,4.000000,,,,0.000000,4.000000,4.000000,4.000000,4.000000,4.000000,4.000000,4.000000,4.000000,4.000000,4.000000,4.000000,4.000000,4.000000,4.000000,100.000000,,,,,,,,,,,,,3.690315,0.674020,0.421707,0.238842,0.151300,0.964763,1.141193,0.352610,0.431616,0.680221,0.719274,0.356694,0.254540,0.127426,0.108728,0.725160,0.623423,0.874876,0.287395,0.329524,0.537769,0.614914,0.149173,0.474087,0.248751,0.213403,0.174581,0.250091,0.111136,0.068961,0.359462,0.277157,0.190669,0.079259,0.055207,0.535446,0.262892,0.238596,0.101922,0.098855,1.480535,0.600447,0.292220,0.307636,0.142658,2.088429,0.845729,0.568251,0.431721,0.464945,1.738542,0.494553,0.226442,0.147975,0.115561,0.668003,0.362648,0.090146,0.086667,0.066522,1.850659,1.001405,0.502725,0.409292,0.128936,1.440224,0.651100,0.245736,0.165766,0.084718
1607646850.817414,43.000000,0.000000,4203.333496,4214.358887,4205.256348,4201.666504,4206.922852,4202.563965,4190.000000,4207.179688,4204.743652,4221.410156,4201.666504,4215.384766,4207.307617,4203.846191,0.000000,4.000000,,,,0.000000,4.000000,4.000000,4.000000,4.000000,4.000000,4.000000,4.000000,4.000000,4.000000,4.000000,4.000000,4.000000,4.000000,4.000000,100.000000,,,,,,,,,,,,,,,,,,,,,,,,,,,,,,,,,,,,,,,,,,,,,,,,,,,,,,,,,,,,,,,,,,,,,,,,,,,,,,,,,,
1607646850.825210,44.000000,0.000000,4198.461426,4222.179688,4203.846191,4201.153809,4207.051270,4197.051270,4190.128418,4204.102539,4204.615234,4223.461426,4195.769043,4216.153809,4213.717773,4204.358887,0.000000,4.000000,,,,0.000000,4.000000,4.000000,4.000000,4.000000,4.000000,4.000000,4.000000,4.000000,4.000000,4.000000,4.000000,4.000000,4.000000,4.000000,100.000000,11.000000,0.000000,0.608876,0.092590,-0.787109,0.033997,1.001480,0.082033,-0.252934,-25.571070,-149.089798,-13.009842,,,,,,,,,,,,,,,,,,,,,,,,,,,,,,,,,,,,,,,,,,,,,,,,,,,,,,,,,,,,,,,,,,,,,,
1607646850.832906,45.000000,0.000000,4192.436035,4215.769043,4199.102539,4201.153809,4198.333496,4193.333496,4184.487305,4199.871582,4199.358887,4208.333496,4183.974121,4211.666504,4203.205078,4202.307617,0.000000,4.000000,,,,0.000000,4.000000,4.000000,4.000000,4.000000,4.000000,4.000000,4.000000,4.000000,4.000000,4.000000,4.000000,4.000000,4.000000,4.000000,100.000000,,,,,,,,,,,,,,,,,,,,,,,,,,,,,,,,,,,,,,,,,,,,,,,,,,,,,,,,,,,,,,,,,,,,,,,,,,,,,,,,,,
1607646850.840702,46.000000,0.000000,4197.179688,4211.922852,4200.897461,4199.230957,4202.563965,4197.179688,4183.846191,4199.487305,4196.794922,4203.333496,4188.461426,4212.563965,4201.153809,4203.333496,0.000000,4.000000,,,,0.000000,4.000000,4.000000,4.000000,4.000000,4.000000,4.000000,4.000000,4.000000,4.000000,4.000000,4.000000,4.000000,4.000000,4.000000,100.000000,,,,,,,,,,,,,,,,,,,,,,,,,,,,,,,,,,,,,,,,,,,,,,,,,,,,,,,,,,,,,,,,,,,,,,,,,,,,,,,,,,
1607646850.848498,47.000000,0.000000,4198.846191,4218.717773,4203.846191,4203.846191,4204.743652,4201.794922,4186.410156,4198.205078,4198.333496,4205.256348,4193.333496,4215.641113,4205.000000,4203.846191,0.000000,4.000000,,,,0.000000,4.000000,4.000000,4.000000,4.000000,4.000000,4.000000,4.000000,4.000000,4.000000,4.000000,4.000000,4.000000,4.000000,4.000000,100.000000,,,,,,,,,,,,,,,,,,,,,,,,,,,,,,,,,,,,,,,,,,,,,,,,,,,,,,,,,,,,,,,,,,,,,,,,,,,,,,,,,,
1607646850.856294,48.000000,0.000000,4197.563965,4218.077148,4201.666504,4199.358887,4200.128418,4201.153809,4187.179688,4196.794922,4199.487305,4199.358887,4188.077148,4215.384766,4204.102539,4201.666504,0.000000,4.000000,,,,0.000000,4.000000,4.000000,4.000000,4.000000,4.000000,4.000000,4.000000,4.000000,4.000000,4.000000,4.000000,4.000000,4.000000,4.000000,100.000000,12.000000,0.000000,0.608794,0.092590,-0.787170,0.034058,1.000992,0.081056,-0.269047,-25.571070,-150.136566,-12.561227,,,,,,,,,,,,,,,,,,,,,,,,,,,,,,,,,,,,,,,,,,,,,,,,,,,,,,,,,,,,,,,,,,,,,,
1607646850.864090,49.000000,0.000000,4201.538574,4215.769043,4199.230957,4184.230957,4207.563965,4200.000000,4186.538574,4199.102539,4199.871582,4198.589844,4184.102539,4211.794922,4203.461426,4201.410156,0.000000,4.000000,,,,0.000000,4.000000,4.000000,4.000000,4.000000,4.000000,4.000000,4.000000,4.000000,4.000000,4.000000,4.000000,4.000000,4.000000,4.000000,100.000000,,,,,,,,,,,,,,,,,,,,,,,,,,,,,,,,,,,,,,,,,,,,,,,,,,,,,,,,,,,,,,,,,,,,,,,,,,,,,,,,,,
1607646850.871887,50.000000,0.000000,4203.589844,4215.641113,4198.717773,4190.000000,4211.153809,4201.794922,4185.897461,4196.794922,4199.487305,4206.410156,4186.410156,4205.128418,4202.692383,4197.436035,0.000000,4.000000,,,,0.000000,4.000000,4.000000,4.000000,4.000000,4.000000,4.000000,4.000000,4.000000,4.000000,4.000000,4.000000,4.000000,4.000000,4.000000,100.000000,,,,,,,,,,,,,,,,,,,,,,,,,,,,,,,,,,,,,,,,,,,,,,,,,,,,,,,,,,,,,,,,,,,,,,,,,,,,,,,,,,
1607646850.879683,51.000000,0.000000,4202.820313,4210.512695,4198.846191,4208.717773,4201.025879,4199.487305,4186.153809,4187.307617,4193.077148,4204.358887,4186.794922,4201.666504,4202.307617,4189.871582,0.000000,4.000000,,,,0.000000,4.000000,4.000000,4.000000,4.000000,4.000000,4.000000,4.000000,4.000000,4.000000,4.000000,4.000000,4.000000,4.000000,4.000000,100.000000,,,,,,,,,,,,,,,,,,,,,,,,,,,,,,,,,,,,,,,,,,,,,,,,,,,,,,,,,,,,,,,,,,,,,,,,,,,,,,,,,,
1607646850.887479,52.000000,0.000000,4202.820313,4206.410156,4197.692383,4198.846191,4198.974121,4194.615234,4181.794922,4183.974121,4185.897461,4197.051270,4178.461426,4203.717773,4196.922852,4188.974121,0.000000,4.000000,,,,0.000000,4.000000,4.000000,4.000000,4.000000,4.000000,4.000000,4.000000,4.000000,4.000000,4.000000,4.000000,4.000000,4.000000,4.000000,100.000000,13.000000,0.000000,0.608549,0.092957,-0.787292,0.034607,0.979507,0.077150,-0.263676,-26.318762,-149.388870,-12.262150,,,,,,,,,,,,,,,,,,,,,,,,,,,,,,,,,,,,,,,,,,,,,,,,,,,,,,,,,,,,,,,,,,,,,,
1607646850.895275,53.000000,0.000000,4199.871582,4210.769043,4196.794922,4181.794922,4197.692383,4191.025879,4173.974121,4185.897461,4185.384766,4199.615234,4173.589844,4204.743652,4188.205078,4191.282227,0.000000,4.000000,,,,0.000000,4.000000,4.000000,4.000000,4.000000,4.000000,4.000000,4.000000,4.000000,4.000000,4.000000,4.000000,4.000000,4.000000,4.000000,100.000000,,,,,,,,,,,,,,,,,,,,,,,,,,,,,,,,,,,,,,,,,,,,,,,,,,,,,,,,,,,,,,,,,,,,,,,,,,,,,,,,,,
1607646850.903071,54.000000,0.000000,4197.051270,4213.589844,4197.692383,4191.153809,4192.179688,4187.692383,4171.538574,4185.256348,4186.410156,4203.974121,4180.641113,4203.333496,4192.692383,4190.384766,0.000000,4.000000,,,,0.000000,4.000000,4.000000,4.000000,4.000000,4.000000,4.000000,4.000000,4.000000,4.000000,4.000000,4.000000,4.000000,4.000000,4.000000,100.000000,,,,,,,,,,,,,,,,,,,,,,,,,,,,,,,,,,,,,,,,,,,,,,,,,,,,,,,,,,,,,,,,,,,,,,,,,,,,,,,,,,
1607646850.910767,55.000000,0.000000,4199.358887,4209.358887,4199.871582,4200.769043,4196.410156,4185.769043,4172.948730,4190.256348,4189.487305,4200.256348,4186.153809,4208.461426,4203.077148,4193.846191,0.000000,4.000000,,,,0.000000,4.000000,4.000000,4.000000,4.000000,4.000000,4.000000,4.000000,4.000000,4.000000,4.000000,4.000000,4.000000,4.000000,4.000000,100.000000,,,,,,,,,,,,,,,,,,,,,,,,,,,,,,,,,,,,,,,,,,,,,,,,,,,,,,,,,,,,,,,,,,,,,,,,,,,,,,,,,,
1607646850.918563,56.000000,0.000000,4202.563965,4214.102539,4201.922852,4196.538574,4203.717773,4190.512695,4173.974121,4198.846191,4199.615234,4200.512695,4185.769043,4216.922852,4203.846191,4201.282227,0.000000,4.000000,,,,0.000000,4.000000,4.000000,4.000000,4.000000,4.000000,4.000000,4.000000,4.000000,4.000000,4.000000,4.000000,4.000000,4.000000,4.000000,100.000000,14.000000,0.000000,0.608368,0.092834,-0.787415,0.035339,0.979507,0.061524,-0.270024,-25.271992,-149.239334,-11.963073,,,,,,,,,,,,,,,,,,,,,,,,,,,,,,,,,,,,,,,,,,,,,,,,,,,,,,,,,,,,,,,,,,,,,,
1607646850.926359,57.000000,0.000000,4203.717773,4222.179688,4203.589844,4201.025879,4205.384766,4196.538574,4172.820313,4199.615234,4203.205078,4210.000000,4188.077148,4218.717773,4203.846191,4202.948730,0.000000,4.000000,,,,0.000000,4.000000,4.000000,4.000000,4.000000,4.000000,4.000000,4.000000,4.000000,4.000000,4.000000,4.000000,4.000000,4.000000,4.000000,100.000000,,,,,,,,,,,,,,,,,,,,,,,,,,,,,,,,,,,,,,,,,,,,,,,,,,,,,,,,,,,,,,,,,,,,,,,,,,,,,,,,,,
1607646850.934155,58.000000,0.000000,4203.205078,4215.769043,4202.692383,4203.077148,4207.051270,4197.307617,4172.051270,4193.205078,4190.512695,4206.025879,4189.871582,4214.102539,4204.230957,4201.410156,0.000000,4.000000,,,,0.000000,4.000000,4.000000,4.000000,4.000000,4.000000,4.000000,4.000000,4.000000,4.000000,4.000000,4.000000,4.000000,4.000000,4.000000,100.000000,,,,,,,,,,,,,4.810528,0.506582,0.470069,0.235689,0.143160,0.956400,0.965068,0.352514,0.394519,0.690454,0.846586,0.257739,0.246332,0.118396,0.108854,0.805814,0.409447,0.878048,0.275213,0.327450,0.484173,0.473214,0.144113,0.484900,0.276686,0.171108,0.225300,0.289614,0.139970,0.082066,0.309163,0.303120,0.188168,0.068153,0.060969,0.633434,0.279791,0.208644,0.112220,0.105016,1.733260,0.666923,0.248498,0.301092,0.161924,2.468160,0.751220,0.543709,0.377303,0.514588,2.191295,0.372698,0.221050,0.180995,0.122300,0.872727,0.282099,0.100548,0.083874,0.062072,2.303004,0.840587,0.410248,0.432822,0.140343,1.695331,0.491199,0.258487,0.201737,0.086507
1607646850.941951,59.000000,0.000000,4201.538574,4205.512695,4200.256348,4189.102539,4201.282227,4199.102539,4178.846191,4188.333496,4182.692383,4191.410156,4187.051270,4209.230957,4198.461426,4197.948730,0.000000,4.000000,,,,0.000000,4.000000,4.000000,4.000000,4.000000,4.000000,4.000000,4.000000,4.000000,4.000000,4.000000,4.000000,4.000000,4.000000,4.000000,100.000000,,,,,,,,,,,,,,,,,,,,,,,,,,,,,,,,,,,,,,,,,,,,,,,,,,,,,,,,,,,,,,,,,,,,,,,,,,,,,,,,,,
1607646850.949747,60.000000,0.000000,4200.000000,4199.615234,4200.000000,4186.153809,4194.230957,4198.974121,4182.820313,4190.512695,4185.769043,4186.666504,4186.410156,4208.589844,4197.563965,4189.230957,0.000000,4.000000,,,,0.000000,4.000000,4.000000,4.000000,4.000000,4.000000,4.000000,4.000000,4.000000,4.000000,4.000000,4.000000,4.000000,4.000000,4.000000,100.000000,15.000000,0.000000,0.608572,0.091553,-0.787354,0.036499,0.979995,0.042969,-0.265629,-24.374762,-149.837494,-13.308919,,,,,,,,,,,,,,,,,,,,,,,,,,,,,,,,,,,,,,,,,,,,,,,,,,,,,,,,,,,,,,,,,,,,,,
1607646850.957543,61.000000,0.000000,4202.692383,4199.102539,4198.974121,4200.897461,4197.051270,4189.871582,4175.897461,4195.769043,4185.641113,4183.717773,4185.641113,4211.538574,4199.230957,4185.512695,0.000000,4.000000,,,,0.000000,4.000000,4.000000,4.000000,4.000000,4.000000,4.000000,4.000000,4.000000,4.000000,4.000000,4.000000,4.000000,4.000000,4.000000,100.000000,,,,,,,,,,,,,,,,,,,,,,,,,,,,,,,,,,,,,,,,,,,,,,,,,,,,,,,,,,,,,,,,,,,,,,,,,,,,,,,,,,
1607646850.965339,62.000000,0.000000,4207.179688,4206.794922,4196.794922,4199.743652,4198.077148,4182.563965,4175.769043,4199.230957,4192.179688,4190.000000,4186.794922,4211.025879,4196.538574,4193.461426,0.000000,4.000000,,,,0.000000,4.000000,4.000000,4.000000,4.000000,4.000000,4.000000,4.000000,4.000000,4.000000,4.000000,4.000000,4.000000,4.000000,4.000000,100.000000,,,,,,,,,,,,,,,,,,,,,,,,,,,,,,,,,,,,,,,,,,,,,,,,,,,,,,,,,,,,,,,,,,,,,,,,,,,,,,,,,,
1607646850.973135,63.000000,0.000000,4206.153809,4215.641113,4198.461426,4186.666504,4198.846191,4182.692383,4184.871582,4200.000000,4204.230957,4208.974121,4187.948730,4209.743652,4197.563965,4197.692383,0.000000,4.000000,,,,0.000000,4.000000,4.000000,4.000000,4.000000,4.000000,4.000000,4.000000,4.000000,4.000000,4.000000,4.000000,4.000000,4.000000,4.000000,100.000000,,,,,,,,,,,,,,,,,,,,,,,,,,,,,,,,,,,,,,,,,,,,,,,,,,,,,,,,,,,,,,,,,,,,,,,,,,,,,,,,,,
1607646850.980831,64.000000,0.000000,4204.230957,4214.871582,4201.538574,4193.974121,4202.307617,4182.563965,4186.410156,4200.512695,4202.692383,4207.563965,4186.538574,4213.461426,4200.000000,4193.205078,2886.000000,4.000000,,,,0.000000,4.000000,4.000000,4.000000,4.000000,4.000000,4.000000,4.000000,4.000000,4.000000,4.000000,4.000000,4.000000,4.000000,4.000000,100.000000,16.000000,0.000000,0.608663,0.090698,-0.787292,0.038391,0.990738,0.025879,-0.272465,-25.122454,-149.089798,-12.262150,,,,,,,,,,,,,,,,,,,,,,,,,,,,,,,,,,,,,,,,,,,,,,,,,,,,,,,,,,,,,,,,,,,,,,
1607646850.988627,65.000000,0.000000,4206.410156,4213.589844,4203.205078,4211.666504,4200.512695,4184.871582,4183.846191,4200.384766,4196.922852,4200.384766,4192.563965,4216.538574,4199.487305,4195.769043,2932.000000,4.000000,,,,0.000000,4.000000,4.000000,4.000000,4.000000,4.000000,4.000000,4.000000,4.000000,4.000000,4.000000,4.000000,4.000000,4.000000,4.000000,100.000000,,,,,,,,,,,,,,,,,,,,,,,,,,,,,,,,,,,,,,,,,,,,,,,,,,,,,,,,,,,,,,,,,,,,,,,,,,,,,,,,,,
1607646850.996424,66.000000,0.000000,4210.512695,4222.179688,4203.974121,4210.000000,4199.487305,4190.128418,4184.487305,4202.179688,4203.205078,4217.179688,4201.538574,4216.922852,4202.051270,4201.922852,3424.000000,4.000000,,,,0.000000,4.000000,4.000000,4.000000,4.000000,4.000000,4.000000,4.000000,4.000000,4.000000,4.000000,4.000000,4.000000,4.000000,4.000000,100.000000,,,,,,,,,,,,,,,,,,,,,,,,,,,,,,,,,,,,,,,,,,,,,,,,,,,,,,,,,,,,,,,,,,,,,,,,,,,,,,,,,,
1607646851.004220,67.000000,0.000000,4213.333496,4223.205078,4203.846191,4205.641113,4203.589844,4188.333496,4181.666504,4201.922852,4200.897461,4221.538574,4200.384766,4215.641113,4203.077148,4199.230957,3530.000000,4.000000,,,,0.000000,4.000000,4.000000,4.000000,4.000000,4.000000,4.000000,4.000000,4.000000,4.000000,4.000000,4.000000,4.000000,4.000000,4.000000,100.000000,,,,,,,,,,,,,,,,,,,,,,,,,,,,,,,,,,,,,,,,,,,,,,,,,,,,,,,,,,,,,,,,,,,,,,,,,,,,,,,,,,
1607646851.012016,68.000000,0.000000,4217.307617,4218.589844,4204.102539,4206.666504,4202.436035,4187.307617,4179.358887,4198.717773,4195.256348,4208.846191,4197.820313,4215.512695,4203.333496,4198.846191,3647.000000,4.000000,,,,0.000000,4.000000,4.000000,4.000000,4.000000,4.000000,4.000000,4.000000,4.000000,4.000000,4.000000,4.000000,4.000000,4.000000,4.000000,100.000000,17.000000,0.000000,0.608629,0.090454,-0.787292,0.039490,1.014176,0.039063,-0.268070,-24.972916,-149.687958,-12.411689,,,,,,,,,,,,,,,,,,,,,,,,,,,,,,,,,,,,,,,,,,,,,,,,,,,,,,,,,,,,,,,,,,,,,,
1607646851.019812,69.000000,0.000000,4218.589844,4223.077148,4204.102539,4203.717773,4198.717773,4188.077148,4176.794922,4201.282227,4205.128418,4212.948730,4201.282227,4215.256348,4209.102539,4203.846191,3438.000000,4.000000,,,,0.000000,4.000000,4.000000,4.000000,4.000000,4.000000,4.000000,4.000000,4.000000,4.000000,4.000000,4.000000,4.000000,4.000000,4.000000,100.000000,,,,,,,,,,,,,,,,,,,,,,,,,,,,,,,,,,,,,,,,,,,,,,,,,,,,,,,,,,,,,,,,,,,,,,,,,,,,,,,,,,
1607646851.027608,70.000000,0.000000,4216.153809,4225.641113,4201.794922,4207.051270,4204.102539,4187.179688,4171.153809,4203.589844,4208.974121,4219.230957,4199.743652,4212.307617,4210.128418,4199.487305,3311.000000,4.000000,,,,0.000000,4.000000,4.000000,4.000000,4.000000,4.000000,4.000000,4.000000,4.000000,4.000000,4.000000,4.000000,4.000000,4.000000,4.000000,100.000000,,,,,,,,,,,,,,,,,,,,,,,,,,,,,,,,,,,,,,,,,,,,,,,,,,,,,,,,,,,,,,,,,,,,,,,,,,,,,,,,,,
1607646851.035404,71.000000,0.000000,4216.410156,4220.769043,4200.256348,4213.461426,4209.102539,4191.025879,4172.820313,4200.384766,4199.615234,4214.102539,4191.666504,4211.282227,4203.333496,4195.128418,3143.000000,4.000000,,,,0.000000,4.000000,4.000000,4.000000,4.000000,4.000000,4.000000,4.000000,4.000000,4.000000,4.000000,4.000000,4.000000,4.000000,4.000000,100.000000,,,,,,,,,,,,,,,,,,,,,,,,,,,,,,,,,,,,,,,,,,,,,,,,,,,,,,,,,,,,,,,,,,,,,,,,,,,,,,,,,,
1607646851.043200,72.000000,0.000000,4216.282227,4212.179688,4201.794922,4205.769043,4201.922852,4194.487305,4181.666504,4199.230957,4196.794922,4212.436035,4189.743652,4214.358887,4201.666504,4198.974121,3480.000000,4.000000,,,,0.000000,4.000000,4.000000,4.000000,4.000000,4.000000,4.000000,4.000000,4.000000,4.000000,4.000000,4.000000,4.000000,4.000000,4.000000,100.000000,18.000000,0.000000,0.608280,0.090332,-0.787476,0.041443,1.000504,0.042969,-0.279301,-25.122454,-149.837494,-12.561227,,,,,,,,,,,,,,,,,,,,,,,,,,,,,,,,,,,,,,,,,,,,,,,,,,,,,,,,,,,,,,,,,,,,,,
1607646851.050896,73.000000,0.000000,4216.410156,4215.384766,4202.307617,4195.897461,4198.077148,4192.563965,4186.025879,4203.461426,4200.641113,4216.666504,4196.794922,4215.769043,4205.000000,4200.256348,3639.000000,4.000000,,,,0.000000,4.000000,4.000000,4.000000,4.000000,4.000000,4.000000,4.000000,4.000000,4.000000,4.000000,4.000000,4.000000,4.000000,4.000000,100.000000,,,,,,,,,,,,,,,,,,,,,,,,,,,,,,,,,,,,,,,,,,,,,,,,,,,,,,,,,,,,,,,,,,,,,,,,,,,,,,,,,,
1607646851.058692,74.000000,0.000000,4217.179688,4228.589844,4200.769043,4202.179688,4202.692383,4195.384766,4185.000000,4203.589844,4200.384766,4214.871582,4197.820313,4213.205078,4201.666504,4196.922852,3592.000000,4.000000,,,,0.000000,4.000000,4.000000,4.000000,4.000000,4.000000,4.000000,4.000000,4.000000,4.000000,4.000000,4.000000,4.000000,4.000000,4.000000,100.000000,,,,,,,,,,,,,5.565506,0.397155,0.530937,0.244125,0.135722,0.924912,0.795440,0.383582,0.364725,0.676182,0.903770,0.182070,0.222217,0.112769,0.106492,0.868850,0.276328,0.856670,0.266102,0.330259,0.433610,0.377401,0.167227,0.509123,0.313911,0.144984,0.307748,0.322832,0.170214,0.098149,0.296948,0.380604,0.192279,0.070034,0.070392,0.751508,0.305697,0.178613,0.122683,0.107294,1.908741,0.743083,0.222077,0.299807,0.184448,2.759211,0.688798,0.522070,0.330904,0.574951,2.480590,0.295880,0.241671,0.209099,0.127590,1.010422,0.214086,0.120170,0.086714,0.060195,2.636510,0.712217,0.335965,0.448972,0.155368,1.859550,0.368192,0.279499,0.238662,0.092801
1607646851.066488,75.000000,0.000000,4216.538574,4227.692383,4202.692383,4211.410156,4202.307617,4202.051270,4187.051270,4201.666504,4200.384766,4203.846191,4191.025879,4212.436035,4198.589844,4197.948730,3434.000000,4.000000,,,,0.000000,4.000000,4.000000,4.000000,4.000000,4.000000,4.000000,4.000000,4.000000,4.000000,4.000000,4.000000,4.000000,4.000000,4.000000,100.000000,,,,,,,,,,,,,,,,,,,,,,,,,,,,,,,,,,,,,,,,,,,,,,,,,,,,,,,,,,,,,,,,,,,,,,,,,,,,,,,,,,
1607646851.074284,76.000000,0.000000,4216.153809,4219.102539,4202.948730,4215.000000,4206.025879,4200.128418,4187.692383,4202.179688,4198.461426,4199.743652,4192.948730,4213.461426,4200.769043,4201.282227,2773.000000,4.000000,,,,0.000000,4.000000,4.000000,4.000000,4.000000,4.000000,4.000000,4.000000,4.000000,4.000000,4.000000,4.000000,4.000000,4.000000,4.000000,100.000000,19.000000,0.000000,0.607527,0.090698,-0.787903,0.043518,1.006363,0.037110,-0.276860,-26.019684,-149.837494,-11.364920,,,,,,,,,,,,,,,,,,,,,,,,,,,,,,,,,,,,,,,,,,,,,,,,,,,,,,,,,,,,,,,,,,,,,,
1607646851.082080,77.000000,0.000000,4217.179688,4217.307617,4202.692383,4217.692383,4215.641113,4197.307617,4185.000000,4202.436035,4196.410156,4209.230957,4201.794922,4213.461426,4203.333496,4199.743652,2453.000000,4.000000,,,,0.000000,4.000000,4.000000,4.000000,4.000000,4.000000,4.000000,4.000000,4.000000,4.000000,4.000000,4.000000,4.000000,4.000000,4.000000,100.000000,,,,,,,,,,,,,,,,,,,,,,,,,,,,,,,,,,,,,,,,,,,,,,,,,,,,,,,,,,,,,,,,,,,,,,,,,,,,,,,,,,
1607646851.089876,78.000000,0.000000,4218.846191,4219.871582,4207.820313,4214.358887,4210.512695,4201.025879,4186.538574,4203.846191,4199.615234,4207.563965,4198.461426,4215.000000,4204.358887,4198.461426,3592.000000,4.000000,,,,0.000000,4.000000,4.000000,4.000000,4.000000,4.000000,4.000000,4.000000,4.000000,4.000000,4.000000,4.000000,4.000000,4.000000,4.000000,100.000000,,,,,,,,,,,,,,,,,,,,,,,,,,,,,,,,,,,,,,,,,,,,,,,,,,,,,,,,,,,,,,,,,,,,,,,,,,,,,,,,,,
1607646851.097672,79.000000,0.000000,4217.563965,4223.077148,4207.179688,4213.077148,4203.077148,4200.512695,4188.461426,4201.922852,4198.974121,4200.512695,4191.282227,4213.717773,4199.102539,4198.717773,3434.000000,4.000000,,,,0.000000,4.000000,4.000000,4.000000,4.000000,4.000000,4.000000,4.000000,4.000000,4.000000,4.000000,4.000000,4.000000,4.000000,4.000000,100.000000,,,,,,,,,,,,,,,,,,,,,,,,,,,,,,,,,,,,,,,,,,,,,,,,,,,,,,,,,,,,,,,,,,,,,,,,,,,,,,,,,,
1607646851.105468,80.000000,0.000000,4216.410156,4229.230957,4203.717773,4216.666504,4212.820313,4199.102539,4191.410156,4202.563965,4197.948730,4210.897461,4195.256348,4213.461426,4194.230957,4199.102539,2773.000000,4.000000,,,,0.000000,4.000000,4.000000,4.000000,4.000000,4.000000,4.000000,4.000000,4.000000,4.000000,4.000000,4.000000,4.000000,4.000000,4.000000,100.000000,20.000000,0.000000,0.606742,0.091309,-0.788330,0.045410,0.995132,0.031250,-0.282231,-24.524300,-149.987030,-11.963073,,,,,,,,,,,,,,,,,,,,,,,,,,,,,,,,,,,,,,,,,,,,,,,,,,,,,,,,,,,,,,,,,,,,,,
1607646851.113264,81.000000,0.000000,4218.589844,4227.307617,4211.794922,4219.102539,4218.846191,4203.333496,4197.436035,4213.846191,4203.077148,4220.512695,4202.948730,4218.589844,4203.461426,4203.077148,2453.000000,4.000000,,,,0.000000,4.000000,4.000000,4.000000,4.000000,4.000000,4.000000,4.000000,4.000000,4.000000,4.000000,4.000000,4.000000,4.000000,4.000000,100.000000,,,,,,,,,,,,,,,,,,,,,,,,,,,,,,,,,,,,,,,,,,,,,,,,,,,,,,,,,,,,,,,,,,,,,,,,,,,,,,,,,,
1607646851.121060,82.000000,0.000000,4219.487305,4215.897461,4217.051270,4217.179688,4207.563965,4203.205078,4194.487305,4216.153809,4204.358887,4217.436035,4204.102539,4221.410156,4212.051270,4205.641113,3592.000000,4.000000,,,,0.000000,4.000000,4.000000,4.000000,4.000000,4.000000,4.000000,4.000000,4.000000,4.000000,4.000000,4.000000,4.000000,4.000000,4.000000,100.000000,,,,,,,,,,,,,,,,,,,,,,,,,,,,,,,,,,,,,,,,,,,,,,,,,,,,,,,,,,,,,,,,,,,,,,,,,,,,,,,,,,
1607646851.128757,83.000000,0.000000,4216.794922,4213.205078,4210.256348,4214.615234,4205.128418,4198.333496,4188.205078,4205.769043,4199.102539,4213.974121,4200.897461,4217.948730,4204.102539,4201.794922,3434.000000,4.000000,,,,0.000000,4.000000,4.000000,4.000000,4.000000,4.000000,4.000000,4.000000,4.000000,4.000000,4.000000,4.000000,4.000000,4.000000,4.000000,100.000000,,,,,,,,,,,,,,,,,,,,,,,,,,,,,,,,,,,,,,,,,,,,,,,,,,,,,,,,,,,,,,,,,,,,,,,,,,,,,,,,,,
1607646851.136553,84.000000,0.000000,4216.153809,4218.205078,4211.538574,4216.025879,4217.948730,4207.307617,4195.641113,4209.871582,4202.692383,4216.794922,4201.666504,4216.538574,4204.615234,4202.436035,2773.000000,4.000000,,,,0.000000,4.000000,4.000000,4.000000,4.000000,4.000000,4.000000,4.000000,4.000000,4.000000,4.000000,4.000000,4.000000,4.000000,4.000000,100.000000,21.000000,0.000000,0.605932,0.092163,-0.788757,0.047058,0.997086,0.036622,-0.288090,-25.571070,-150.136566,-11.364920,,,,,,,,,,,,,,,,,,,,,,,,,,,,,,,,,,,,,,,,,,,,,,,,,,,,,,,,,,,,,,,,,,,,,,
1607646851.144349,85.000000,0.000000,4216.410156,4221.025879,4215.128418,4215.769043,4221.410156,4215.512695,4205.000000,4222.692383,4207.563965,4220.641113,4204.102539,4218.461426,4214.743652,4206.025879,2453.000000,4.000000,,,,0.000000,4.000000,4.000000,4.000000,4.000000,4.000000,4.000000,4.000000,4.000000,4.000000,4.000000,4.000000,4.000000,4.000000,4.000000,100.000000,,,,,,,,,,,,,,,,,,,,,,,,,,,,,,,,,,,,,,,,,,,,,,,,,,,,,,,,,,,,,,,,,,,,,,,,,,,,,,,,,,
1607646851.152145,86.000000,0.000000,4213.205078,4215.512695,4204.358887,4215.769043,4214.615234,4205.000000,4199.743652,4214.358887,4201.922852,4214.743652,4201.025879,4217.179688,4208.589844,4200.384766,3592.000000,4.000000,,,,0.000000,4.000000,4.000000,4.000000,4.000000,4.000000,4.000000,4.000000,4.000000,4.000000,4.000000,4.000000,4.000000,4.000000,4.000000,100.000000,,,,,,,,,,,,,,,,,,,,,,,,,,,,,,,,,,,,,,,,,,,,,,,,,,,,,,,,,,,,,,,,,,,,,,,,,,,,,,,,,,
1607646851.159941,87.000000,0.000000,4212.051270,4210.000000,4196.794922,4211.538574,4213.974121,4199.743652,4189.871582,4200.512695,4199.743652,4203.333496,4196.666504,4213.077148,4197.436035,4196.922852,3434.000000,4.000000,,,,0.000000,4.000000,4.000000,4.000000,4.000000,4.000000,4.000000,4.000000,4.000000,4.000000,4.000000,4.000000,4.000000,4.000000,4.000000,100.000000,,,,,,,,,,,,,,,,,,,,,,,,,,,,,,,,,,,,,,,,,,,,,,,,,,,,,,,,,,,,,,,,,,,,,,,,,,,,,,,,,,
1607646851.167737,88.000000,0.000000,4214.487305,4215.641113,4199.871582,4199.230957,4213.717773,4208.461426,4186.922852,4200.512695,4203.077148,4203.589844,4197.820313,4208.461426,4196.922852,4201.282227,2773.000000,4.000000,,,,0.000000,4.000000,4.000000,4.000000,4.000000,4.000000,4.000000,4.000000,4.000000,4.000000,4.000000,4.000000,4.000000,4.000000,4.000000,100.000000,22.000000,0.000000,0.605304,0.092773,-0.789124,0.047791,0.980972,0.024414,-0.292973,-26.916914,-148.940262,-12.411689,,,,,,,,,,,,,,,,,,,,,,,,,,,,,,,,,,,,,,,,,,,,,,,,,,,,,,,,,,,,,,,,,,,,,,
1607646851.175533,89.000000,0.000000,4216.922852,4218.589844,4200.384766,4199.487305,4207.948730,4209.358887,4187.307617,4203.333496,4200.000000,4209.487305,4199.230957,4207.051270,4196.025879,4201.153809,2453.000000,4.000000,,,,0.000000,4.000000,4.000000,4.000000,4.000000,4.000000,4.000000,4.000000,4.000000,4.000000,4.000000,4.000000,4.000000,4.000000,4.000000,100.000000,,,,,,,,,,,,,,,,,,,,,,,,,,,,,,,,,,,,,,,,,,,,,,,,,,,,,,,,,,,,,,,,,,,,,,,,,,,,,,,,,,
1607646851.183329,90.000000,0.000000,4217.179688,4213.589844,4197.692383,4214.871582,4209.487305,4202.563965,4187.820313,4201.282227,4196.282227,4208.846191,4198.333496,4211.794922,4197.179688,4202.820313,3592.000000,4.000000,,,,0.000000,4.000000,4.000000,4.000000,4.000000,4.000000,4.000000,4.000000,4.000000,4.000000,4.000000,4.000000,4.000000,4.000000,4.000000,100.000000,,,,,,,,,,,,,5.693540,0.335211,0.575838,0.255278,0.130259,0.874344,0.639849,0.407390,0.345534,0.646315,0.870995,0.131500,0.185706,0.111145,0.102396,0.902918,0.218560,0.816594,0.259045,0.341881,0.398208,0.334963,0.213714,0.533023,0.349972,0.153821,0.407509,0.344807,0.193549,0.113391,0.337339,0.483874,0.201850,0.080161,0.081980,0.849325,0.317882,0.152229,0.130872,0.104895,1.960071,0.788343,0.211305,0.297789,0.201493,2.881903,0.670811,0.504077,0.301547,0.624620,2.528380,0.260785,0.276373,0.227062,0.130685,1.027482,0.163044,0.141145,0.090842,0.061704,2.778862,0.618524,0.283177,0.449004,0.170958,1.874962,0.294274,0.305281,0.268806,0.102093
1607646851.191125,91.000000,0.000000,4217.692383,4216.282227,4202.692383,4221.025879,4213.461426,4200.512695,4186.666504,4198.461426,4197.436035,4210.769043,4206.025879,4215.769043,4211.794922,4213.974121,3434.000000,4.000000,,,,0.000000,4.000000,4.000000,4.000000,4.000000,4.000000,4.000000,4.000000,4.000000,4.000000,4.000000,4.000000,4.000000,4.000000,4.000000,100.000000,,,,,,,,,,,,,,,,,,,,,,,,,,,,,,,,,,,,,,,,,,,,,,,,,,,,,,,,,,,,,,,,,,,,,,,,,,,,,,,,,,
1607646851.198821,92.000000,0.000000,4225.000000,4227.436035,4212.436035,4216.538574,4208.333496,4199.102539,4186.025879,4205.769043,4200.256348,4220.000000,4216.922852,4216.025879,4233.333496,4227.051270,2773.000000,4.000000,,,,0.000000,4.000000,4.000000,4.000000,4.000000,4.000000,4.000000,4.000000,4.000000,4.000000,4.000000,4.000000,4.000000,4.000000,4.000000,100.000000,23.000000,0.000000,0.604688,0.093872,-0.789429,0.048401,0.979507,0.023438,-0.269535,-25.122454,-149.837494,-13.757534,,,,,,,,,,,,,,,,,,,,,,,,,,,,,,,,,,,,,,,,,,,,,,,,,,,,,,,,,,,,,,,,,,,,,,
1607646851.206617,93.000000,0.000000,4235.512695,4232.948730,4215.641113,4220.769043,4199.871582,4198.717773,4188.333496,4216.025879,4204.102539,4226.794922,4220.641113,4217.692383,4254.230957,4236.025879,2453.000000,4.000000,,,,0.000000,4.000000,4.000000,4.000000,4.000000,4.000000,4.000000,4.000000,4.000000,4.000000,4.000000,4.000000,4.000000,4.000000,4.000000,100.000000,,,,,,,,,,,,,,,,,,,,,,,,,,,,,,,,,,,,,,,,,,,,,,,,,,,,,,,,,,,,,,,,,,,,,,,,,,,,,,,,,,
1607646851.214413,94.000000,0.000000,4241.538574,4231.794922,4215.128418,4232.436035,4202.692383,4198.589844,4188.205078,4214.743652,4204.743652,4232.179688,4223.077148,4221.794922,4267.948730,4245.641113,3592.000000,4.000000,,,,0.000000,4.000000,4.000000,4.000000,4.000000,4.000000,4.000000,4.000000,4.000000,4.000000,4.000000,4.000000,4.000000,4.000000,4.000000,100.000000,,,,,,,,,,,,,,,,,,,,,,,,,,,,,,,,,,,,,,,,,,,,,,,,,,,,,,,,,,,,,,,,,,,,,,,,,,,,,,,,,,
1607646851.222209,95.000000,0.000000,4245.512695,4230.384766,4216.794922,4230.384766,4209.871582,4196.666504,4185.256348,4205.256348,4202.307617,4234.871582,4228.077148,4221.666504,4276.666504,4256.153809,3434.000000,4.000000,,,,0.000000,4.000000,4.000000,4.000000,4.000000,4.000000,4.000000,4.000000,4.000000,4.000000,4.000000,4.000000,4.000000,4.000000,4.000000,100.000000,,,,,,,,,,,,,,,,,,,,,,,,,,,,,,,,,,,,,,,,,,,,,,,,,,,,,,,,,,,,,,,,,,,,,,,,,,,,,,,,,,
1607646851.230005,96.000000,0.000000,4247.692383,4240.897461,4215.897461,4220.641113,4204.743652,4194.615234,4182.692383,4201.666504,4206.538574,4233.077148,4230.384766,4218.077148,4288.077148,4262.692383,2773.000000,4.000000,,,,0.000000,4.000000,4.000000,4.000000,4.000000,4.000000,4.000000,4.000000,4.000000,4.000000,4.000000,4.000000,4.000000,4.000000,4.000000,100.000000,24.000000,0.000000,0.604373,0.094421,-0.789612,0.048279,0.992203,0.052735,-0.285161,-24.075686,-149.687958,-11.963073,,,,,,,,,,,,,,,,,,,,,,,,,,,,,,,,,,,,,,,,,,,,,,,,,,,,,,,,,,,,,,,,,,,,,,
1607646851.237801,97.000000,0.000000,4249.871582,4260.641113,4214.871582,4220.897461,4200.128418,4196.410156,4185.384766,4207.307617,4212.820313,4242.948730,4232.948730,4219.102539,4298.717773,4267.051270,2453.000000,4.000000,,,,0.000000,4.000000,4.000000,4.000000,4.000000,4.000000,4.000000,4.000000,4.000000,4.000000,4.000000,4.000000,4.000000,4.000000,4.000000,100.000000,,,,,,,,,,,,,,,,,,,,,,,,,,,,,,,,,,,,,,,,,,,,,,,,,,,,,,,,,,,,,,,,,,,,,,,,,,,,,,,,,,
1607646851.245597,98.000000,0.000000,4253.846191,4264.487305,4217.948730,4224.358887,4210.000000,4201.794922,4190.256348,4206.282227,4215.256348,4250.897461,4231.922852,4221.538574,4296.410156,4270.128418,3592.000000,4.000000,,,,0.000000,4.000000,4.000000,4.000000,4.000000,4.000000,4.000000,4.000000,4.000000,4.000000,4.000000,4.000000,4.000000,4.000000,4.000000,100.000000,,,,,,,,,,,,,,,,,,,,,,,,,,,,,,,,,,,,,,,,,,,,,,,,,,,,,,,,,,,,,,,,,,,,,,,,,,,,,,,,,,
1607646851.253393,99.000000,0.000000,4248.205078,4247.051270,4217.436035,4222.436035,4216.153809,4200.897461,4190.897461,4200.641113,4212.820313,4237.820313,4222.051270,4217.820313,4281.410156,4262.692383,3434.000000,4.000000,,,,0.000000,4.000000,4.000000,4.000000,4.000000,4.000000,4.000000,4.000000,4.000000,4.000000,4.000000,4.000000,4.000000,4.000000,4.000000,100.000000,,,,,,,,,,,,,,,,,,,,,,,,,,,,,,,,,,,,,,,,,,,,,,,,,,,,,,,,,,,,,,,,,,,,,,,,,,,,,,,,,,
1607646851.261089,100.000000,0.000000,4235.256348,4236.410156,4212.692383,4228.077148,4213.205078,4198.461426,4192.179688,4206.666504,4207.563965,4228.974121,4217.692383,4214.871582,4268.974121,4251.538574,2773.000000,4.000000,,,,0.000000,4.000000,4.000000,4.000000,4.000000,4.000000,4.000000,4.000000,4.000000,4.000000,4.000000,4.000000,4.000000,4.000000,4.000000,100.000000,25.000000,0.000000,0.604355,0.094727,-0.789612,0.047913,0.973159,0.040040,-0.292973,-25.271992,-149.239334,-11.963073,,,,,,,,,,,,,,,,,,,,,,,,,,,,,,,,,,,,,,,,,,,,,,,,,,,,,,,,,,,,,,,,,,,,,,
1607646851.268885,101.000000,0.000000,4230.769043,4237.436035,4211.922852,4233.846191,4212.307617,4201.410156,4198.077148,4213.846191,4206.538574,4238.077148,4220.128418,4216.025879,4262.820313,4246.794922,2453.000000,4.000000,,,,0.000000,4.000000,4.000000,4.000000,4.000000,4.000000,4.000000,4.000000,4.000000,4.000000,4.000000,4.000000,4.000000,4.000000,4.000000,100.000000,,,,,,,,,,,,,,,,,,,,,,,,,,,,,,,,,,,,,,,,,,,,,,,,,,,,,,,,,,,,,,,,,,,,,,,,,,,,,,,,,,
1607646851.276581,102.000000,0.000000,4231.025879,4230.897461,4215.512695,4222.307617,4206.922852,4200.512695,4198.077148,4206.410156,4211.153809,4233.077148,4215.641113,4216.794922,4254.871582,4240.384766,3592.000000,4.000000,,,,0.000000,4.000000,4.000000,4.000000,4.000000,4.000000,4.000000,4.000000,4.000000,4.000000,4.000000,4.000000,4.000000,4.000000,4.000000,100.000000,,,,,,,,,,,,,,,,,,,,,,,,,,,,,,,,,,,,,,,,,,,,,,,,,,,,,,,,,,,,,,,,,,,,,,,,,,,,,,,,,,
1607646851.284377,103.000000,0.000000,4226.282227,4227.563965,4214.871582,4212.051270,4203.717773,4192.179688,4190.512695,4199.487305,4211.282227,4214.615234,4208.205078,4213.717773,4243.589844,4229.102539,3434.000000,4.000000,,,,0.000000,4.000000,4.000000,4.000000,4.000000,4.000000,4.000000,4.000000,4.000000,4.000000,4.000000,4.000000,4.000000,4.000000,4.000000,100.000000,,,,,,,,,,,,,,,,,,,,,,,,,,,,,,,,,,,,,,,,,,,,,,,,,,,,,,,,,,,,,,,,,,,,,,,,,,,,,,,,,,
1607646851.292173,104.000000,0.000000,4218.589844,4229.871582,4207.820313,4212.436035,4212.692383,4187.307617,4188.077148,4202.051270,4205.128418,4212.051270,4204.615234,4206.794922,4236.538574,4220.384766,2773.000000,4.000000,,,,0.000000,4.000000,4.000000,4.000000,4.000000,4.000000,4.000000,4.000000,4.000000,4.000000,4.000000,4.000000,4.000000,4.000000,4.000000,100.000000,26.000000,0.000000,0.604232,0.094910,-0.789673,0.048096,0.985367,0.026856,-0.269047,-24.972916,-149.239334,-12.411689,,,,,,,,,,,,,,,,,,,,,,,,,,,,,,,,,,,,,,,,,,,,,,,,,,,,,,,,,,,,,,,,,,,,,,
1607646851.299969,105.000000,0.000000,4211.794922,4222.563965,4200.256348,4213.077148,4214.102539,4193.589844,4187.307617,4200.897461,4206.538574,4216.410156,4201.538574,4200.769043,4230.000000,4213.846191,2453.000000,4.000000,,,,0.000000,4.000000,4.000000,4.000000,4.000000,4.000000,4.000000,4.000000,4.000000,4.000000,4.000000,4.000000,4.000000,4.000000,4.000000,100.000000,,,,,,,,,,,,,,,,,,,,,,,,,,,,,,,,,,,,,,,,,,,,,,,,,,,,,,,,,,,,,,,,,,,,,,,,,,,,,,,,,,
1607646851.307766,106.000000,0.000000,4212.563965,4211.922852,4200.897461,4214.230957,4203.461426,4202.563965,4187.948730,4201.153809,4211.025879,4216.282227,4201.282227,4202.179688,4220.897461,4213.461426,3592.000000,4.000000,,,,0.000000,4.000000,4.000000,4.000000,4.000000,4.000000,4.000000,4.000000,4.000000,4.000000,4.000000,4.000000,4.000000,4.000000,4.000000,100.000000,,,,,,,,,,,,,5.133103,0.294837,0.584398,0.261391,0.126219,0.819484,0.506781,0.402237,0.334980,0.607649,0.757020,0.101665,0.146517,0.112044,0.096637,0.880849,0.224651,0.765777,0.252708,0.365134,0.396404,0.327524,0.271299,0.539236,0.373894,0.204201,0.501706,0.357816,0.205783,0.123889,0.427674,0.577792,0.211250,0.093107,0.092665,0.896896,0.305658,0.135835,0.137158,0.098397,1.860417,0.772889,0.216477,0.293485,0.206823,2.808805,0.709766,0.492390,0.297842,0.642623,2.321842,0.253277,0.310633,0.232846,0.131908,0.928685,0.132324,0.162549,0.093913,0.066162,2.694350,0.547006,0.248113,0.427870,0.182917,1.715040,0.262157,0.333141,0.284912,0.111369
1607646851.315562,107.000000,0.000000,4217.948730,4216.538574,4205.769043,4212.179688,4198.461426,4202.307617,4193.589844,4205.384766,4207.820313,4215.256348,4201.922852,4204.230957,4216.282227,4214.230957,3434.000000,4.000000,,,,0.000000,4.000000,4.000000,4.000000,4.000000,4.000000,4.000000,4.000000,4.000000,4.000000,4.000000,4.000000,4.000000,4.000000,4.000000,100.000000,,,,,,,,,,,,,,,,,,,,,,,,,,,,,,,,,,,,,,,,,,,,,,,,,,,,,,,,,,,,,,,,,,,,,,,,,,,,,,,,,,
1607646851.323358,108.000000,0.000000,4213.717773,4225.641113,4203.717773,4213.717773,4203.846191,4198.077148,4192.436035,4201.794922,4201.538574,4211.410156,4197.948730,4201.794922,4218.205078,4205.641113,2773.000000,4.000000,,,,0.000000,4.000000,4.000000,4.000000,4.000000,4.000000,4.000000,4.000000,4.000000,4.000000,4.000000,4.000000,4.000000,4.000000,4.000000,100.000000,27.000000,0.000000,0.604373,0.094421,-0.789612,0.048279,0.993667,0.035157,-0.283696,-25.571070,-149.837494,-11.813535,,,,,,,,,,,,,,,,,,,,,,,,,,,,,,,,,,,,,,,,,,,,,,,,,,,,,,,,,,,,,,,,,,,,,,
1607646851.331154,109.000000,0.000000,4201.794922,4220.512695,4199.102539,4217.820313,4207.563965,4199.743652,4184.871582,4196.025879,4200.512695,4211.025879,4196.794922,4199.358887,4215.384766,4198.077148,2453.000000,4.000000,,,,0.000000,4.000000,4.000000,4.000000,4.000000,4.000000,4.000000,4.000000,4.000000,4.000000,4.000000,4.000000,4.000000,4.000000,4.000000,100.000000,,,,,,,,,,,,,,,,,,,,,,,,,,,,,,,,,,,,,,,,,,,,,,,,,,,,,,,,,,,,,,,,,,,,,,,,,,,,,,,,,,
1607646851.338950,110.000000,0.000000,4196.666504,4212.692383,4198.589844,4215.384766,4201.794922,4199.743652,4181.794922,4196.666504,4196.282227,4204.743652,4198.461426,4198.077148,4204.358887,4197.563965,3592.000000,4.000000,,,,0.000000,4.000000,4.000000,4.000000,4.000000,4.000000,4.000000,4.000000,4.000000,4.000000,4.000000,4.000000,4.000000,4.000000,4.000000,100.000000,,,,,,,,,,,,,,,,,,,,,,,,,,,,,,,,,,,,,,,,,,,,,,,,,,,,,,,,,,,,,,,,,,,,,,,,,,,,,,,,,,
1607646851.346746,111.000000,0.000000,4206.025879,4215.000000,4199.871582,4212.051270,4198.717773,4200.000000,4185.512695,4201.282227,4191.794922,4194.230957,4197.820313,4200.256348,4199.615234,4198.589844,3434.000000,4.000000,,,,0.000000,4.000000,4.000000,4.000000,4.000000,4.000000,4.000000,4.000000,4.000000,4.000000,4.000000,4.000000,4.000000,4.000000,4.000000,100.000000,,,,,,,,,,,,,,,,,,,,,,,,,,,,,,,,,,,,,,,,,,,,,,,,,,,,,,,,,,,,,,,,,,,,,,,,,,,,,,,,,,
1607646851.354442,112.000000,0.000000,4214.871582,4218.589844,4201.538574,4217.948730,4209.871582,4206.794922,4191.025879,4203.717773,4200.128418,4201.410156,4197.436035,4204.102539,4203.333496,4201.794922,2773.000000,4.000000,,,,0.000000,4.000000,4.000000,4.000000,4.000000,4.000000,4.000000,4.000000,4.000000,4.000000,4.000000,4.000000,4.000000,4.000000,4.000000,100.000000,28.000000,0.000000,0.604734,0.093323,-0.789429,0.048889,1.011246,0.041016,-0.276371,-26.617838,-149.687958,-12.710765,,,,,,,,,,,,,,,,,,,,,,,,,,,,,,,,,,,,,,,,,,,,,,,,,,,,,,,,,,,,,,,,,,,,,,
1607646851.362238,113.000000,0.000000,4206.538574,4215.512695,4202.051270,4222.563965,4219.102539,4207.051270,4191.153809,4202.436035,4210.641113,4217.307617,4199.230957,4204.102539,4202.948730,4202.820313,2453.000000,4.000000,,,,0.000000,4.000000,4.000000,4.000000,4.000000,4.000000,4.000000,4.000000,4.000000,4.000000,4.000000,4.000000,4.000000,4.000000,4.000000,100.000000,,,,,,,,,,,,,,,,,,,,,,,,,,,,,,,,,,,,,,,,,,,,,,,,,,,,,,,,,,,,,,,,,,,,,,,,,,,,,,,,,,
1607646851.370034,114.000000,0.000000,4198.846191,4212.948730,4201.922852,4211.538574,4213.589844,4201.666504,4184.358887,4202.563965,4215.512695,4217.563965,4200.769043,4203.333496,4198.077148,4199.743652,3592.000000,4.000000,,,,0.000000,4.000000,4.000000,4.000000,4.000000,4.000000,4.000000,4.000000,4.000000,4.000000,4.000000,4.000000,4.000000,4.000000,4.000000,100.000000,,,,,,,,,,,,,,,,,,,,,,,,,,,,,,,,,,,,,,,,,,,,,,,,,,,,,,,,,,,,,,,,,,,,,,,,,,,,,,,,,,
1607646851.377830,115.000000,0.000000,4207.563965,4217.820313,4202.436035,4198.205078,4211.794922,4201.538574,4183.589844,4204.358887,4209.871582,4213.077148,4200.512695,4204.230957,4197.051270,4198.717773,3434.000000,4.000000,,,,0.000000,4.000000,4.000000,4.000000,4.000000,4.000000,4.000000,4.000000,4.000000,4.000000,4.000000,4.000000,4.000000,4.000000,4.000000,100.000000,,,,,,,,,,,,,,,,,,,,,,,,,,,,,,,,,,,,,,,,,,,,,,,,,,,,,,,,,,,,,,,,,,,,,,,,,,,,,,,,,,
1607646851.385626,116.000000,0.000000,4216.410156,4225.384766,4201.922852,4204.743652,4221.922852,4201.282227,4190.128418,4203.461426,4202.820313,4216.794922,4198.846191,4207.436035,4201.410156,4201.025879,2773.000000,4.000000,,,,0.000000,4.000000,4.000000,4.000000,4.000000,4.000000,4.000000,4.000000,4.000000,4.000000,4.000000,4.000000,4.000000,4.000000,4.000000,100.000000,29.000000,0.000000,0.604954,0.092407,-0.789307,0.049866,0.989273,0.023926,-0.270512,-24.972916,-151.183334,-12.710765,,,,,,,,,,,,,,,,,,,,,,,,,,,,,,,,,,,,,,,,,,,,,,,,,,,,,,,,,,,,,,,,,,,,,,
1607646851.393422,117.000000,0.000000,4219.615234,4224.487305,4201.410156,4221.794922,4218.077148,4199.230957,4189.615234,4202.563965,4211.794922,4222.563965,4204.230957,4213.077148,4206.025879,4203.589844,2453.000000,4.000000,,,,0.000000,4.000000,4.000000,4.000000,4.000000,4.000000,4.000000,4.000000,4.000000,4.000000,4.000000,4.000000,4.000000,4.000000,4.000000,100.000000,,,,,,,,,,,,,,,,,,,,,,,,,,,,,,,,,,,,,,,,,,,,,,,,,,,,,,,,,,,,,,,,,,,,,,,,,,,,,,,,,,
1607646851.401218,118.000000,0.000000,4218.974121,4219.358887,4203.974121,4224.743652,4203.205078,4199.743652,4182.948730,4203.974121,4220.256348,4225.128418,4210.897461,4216.666504,4204.102539,4203.974121,3592.000000,4.000000,,,,0.000000,4.000000,4.000000,4.000000,4.000000,4.000000,4.000000,4.000000,4.000000,4.000000,4.000000,4.000000,4.000000,4.000000,4.000000,100.000000,,,,,,,,,,,,,,,,,,,,,,,,,,,,,,,,,,,,,,,,,,,,,,,,,,,,,,,,,,,,,,,,,,,,,,,,,,,,,,,,,,
1607646851.409014,119.000000,0.000000,4208.205078,4215.128418,4203.717773,4215.769043,4199.102539,4198.846191,4183.205078,4202.948730,4208.333496,4217.051270,4204.615234,4214.358887,4198.589844,4198.077148,3434.000000,4.000000,,,,0.000000,4.000000,4.000000,4.000000,4.000000,4.000000,4.000000,4.000000,4.000000,4.000000,4.000000,4.000000,4.000000,4.000000,4.000000,100.000000,,,,,,,,,,,,,,,,,,,,,,,,,,,,,,,,,,,,,,,,,,,,,,,,,,,,,,,,,,,,,,,,,,,,,,,,,,,,,,,,,,
1607646851.416810,120.000000,0.000000,4201.153809,4207.563965,4198.333496,4209.487305,4206.282227,4197.948730,4183.974121,4201.410156,4197.436035,4210.000000,4197.563965,4210.512695,4197.820313,4192.563965,2773.000000,4.000000,,,,0.000000,4.000000,4.000000,4.000000,4.000000,4.000000,4.000000,4.000000,4.000000,4.000000,4.000000,4.000000,4.000000,4.000000,4.000000,100.000000,30.000000,0.000000,0.605094,0.091675,-0.789246,0.050476,1.001968,0.022461,-0.265141,-25.122454,-149.388870,-12.561227,,,,,,,,,,,,,,,,,,,,,,,,,,,,,,,,,,,,,,,,,,,,,,,,,,,,,,,,,,,,,,,,,,,,,,
1607646851.424506,121.000000,0.000000,4201.666504,4205.512695,4195.897461,4206.410156,4210.256348,4195.769043,4174.743652,4201.666504,4201.025879,4215.641113,4200.641113,4209.615234,4192.307617,4189.358887,2453.000000,4.000000,,,,0.000000,4.000000,4.000000,4.000000,4.000000,4.000000,4.000000,4.000000,4.000000,4.000000,4.000000,4.000000,4.000000,4.000000,4.000000,100.000000,,,,,,,,,,,,,,,,,,,,,,,,,,,,,,,,,,,,,,,,,,,,,,,,,,,,,,,,,,,,,,,,,,,,,,,,,,,,,,,,,,
1607646851.432302,122.000000,0.000000,4200.000000,4210.128418,4198.717773,4210.256348,4207.051270,4193.846191,4171.025879,4201.794922,4202.179688,4216.794922,4202.820313,4210.769043,4183.974121,4188.974121,3592.000000,4.000000,,,,0.000000,4.000000,4.000000,4.000000,4.000000,4.000000,4.000000,4.000000,4.000000,4.000000,4.000000,4.000000,4.000000,4.000000,4.000000,100.000000,,,,,,,,,,,,,4.049578,0.259210,0.550255,0.256608,0.121435,0.763421,0.408833,0.369930,0.331008,0.563300,0.595153,0.091658,0.115854,0.112253,0.089317,0.810741,0.280244,0.707716,0.245043,0.398091,0.412124,0.328608,0.321645,0.516676,0.378928,0.295665,0.567742,0.368784,0.206691,0.127450,0.575741,0.634135,0.215802,0.104965,0.099441,0.878469,0.273178,0.133770,0.142275,0.090781,1.626529,0.690856,0.233456,0.288420,0.198956,2.522469,0.807634,0.483965,0.318495,0.619848,1.938802,0.262739,0.333440,0.226344,0.132517,0.753344,0.124785,0.185175,0.094156,0.071572,2.468933,0.513140,0.228844,0.386649,0.188335,1.457115,0.262868,0.358844,0.281662,0.117434
1607646851.440098,123.000000,0.000000,4206.153809,4212.948730,4204.230957,4217.692383,4205.384766,4198.077148,4183.077148,4202.948730,4201.666504,4211.410156,4201.666504,4213.846191,4191.538574,4197.179688,3434.000000,4.000000,,,,0.000000,4.000000,4.000000,4.000000,4.000000,4.000000,4.000000,4.000000,4.000000,4.000000,4.000000,4.000000,4.000000,4.000000,4.000000,100.000000,,,,,,,,,,,,,,,,,,,,,,,,,,,,,,,,,,,,,,,,,,,,,,,,,,,,,,,,,,,,,,,,,,,,,,,,,,,,,,,,,,
1607646851.447794,124.000000,0.000000,4213.333496,4216.666504,4205.769043,4209.487305,4201.025879,4200.000000,4190.256348,4205.000000,4203.205078,4213.589844,4203.205078,4214.871582,4203.077148,4200.769043,2773.000000,4.000000,,,,0.000000,4.000000,4.000000,4.000000,4.000000,4.000000,4.000000,4.000000,4.000000,4.000000,4.000000,4.000000,4.000000,4.000000,4.000000,100.000000,31.000000,0.000000,0.605302,0.091492,-0.789124,0.050232,0.997086,0.009766,-0.272953,-25.271992,-150.734726,-13.458457,,,,,,,,,,,,,,,,,,,,,,,,,,,,,,,,,,,,,,,,,,,,,,,,,,,,,,,,,,,,,,,,,,,,,,
1607646851.455590,125.000000,0.000000,4203.717773,4213.974121,4201.538574,4197.051270,4200.512695,4197.820313,4183.717773,4201.538574,4203.589844,4212.948730,4202.051270,4210.769043,4194.871582,4190.641113,2453.000000,4.000000,,,,0.000000,4.000000,4.000000,4.000000,4.000000,4.000000,4.000000,4.000000,4.000000,4.000000,4.000000,4.000000,4.000000,4.000000,4.000000,100.000000,,,,,,,,,,,,,,,,,,,,,,,,,,,,,,,,,,,,,,,,,,,,,,,,,,,,,,,,,,,,,,,,,,,,,,,,,,,,,,,,,,
1607646851.463386,126.000000,0.000000,4196.410156,4202.179688,4200.384766,4203.205078,4210.897461,4199.358887,4181.794922,4196.922852,4202.307617,4204.871582,4198.846191,4203.846191,4182.948730,4183.846191,3592.000000,4.000000,,,,0.000000,4.000000,4.000000,4.000000,4.000000,4.000000,4.000000,4.000000,4.000000,4.000000,4.000000,4.000000,4.000000,4.000000,4.000000,100.000000,,,,,,,,,,,,,,,,,,,,,,,,,,,,,,,,,,,,,,,,,,,,,,,,,,,,,,,,,,,,,,,,,,,,,,,,,,,,,,,,,,
1607646851.471182,127.000000,0.000000,4203.717773,4206.666504,4201.538574,4215.256348,4211.410156,4197.051270,4186.282227,4199.743652,4201.410156,4201.153809,4198.846191,4204.743652,4184.487305,4188.461426,58.000000,4.000000,,,,0.000000,4.000000,4.000000,4.000000,4.000000,4.000000,4.000000,4.000000,4.000000,4.000000,4.000000,4.000000,4.000000,4.000000,4.000000,100.000000,,,,,,,,,,,,,,,,,,,,,,,,,,,,,,,,,,,,,,,,,,,,,,,,,,,,,,,,,,,,,,,,,,,,,,,,,,,,,,,,,,
1607646851.478978,0.000000,0.000000,4205.384766,4218.974121,4200.256348,4212.820313,4199.615234,4193.461426,4187.179688,4203.589844,4203.205078,4202.436035,4199.487305,4209.102539,4189.230957,4190.000000,2882.000000,4.000000,,,,0.000000,4.000000,4.000000,4.000000,4.000000,4.000000,4.000000,4.000000,4.000000,4.000000,4.000000,4.000000,4.000000,4.000000,4.000000,100.000000,0.000000,0.000000,0.605439,0.091675,-0.789063,0.049194,0.990738,0.024414,-0.278325,-26.019684,-149.837494,-12.262150,,,,,,,,,,,,,,,,,,,,,,,,,,,,,,,,,,,,,,,,,,,,,,,,,,,,,,,,,,,,,,,,,,,,,,
1607646851.486774,1.000000,0.000000,4197.563965,4207.563965,4199.871582,4202.692383,4197.051270,4195.384766,4185.512695,4202.948730,4203.589844,4206.282227,4199.615234,4205.256348,4188.974121,4186.025879,2918.000000,4.000000,,,,0.000000,4.000000,4.000000,4.000000,4.000000,4.000000,4.000000,4.000000,4.000000,4.000000,4.000000,4.000000,4.000000,4.000000,4.000000,100.000000,,,,,,,,,,,,,,,,,,,,,,,,,,,,,,,,,,,,,,,,,,,,,,,,,,,,,,,,,,,,,,,,,,,,,,,,,,,,,,,,,,
1607646851.494570,2.000000,0.000000,4195.000000,4193.974121,4200.256348,4200.641113,4203.589844,4196.666504,4183.717773,4202.051270,4201.410156,4209.102539,4196.794922,4203.333496,4187.051270,4184.358887,3421.000000,4.000000,,,,0.000000,4.000000,4.000000,4.000000,4.000000,4.000000,4.000000,4.000000,4.000000,4.000000,4.000000,4.000000,4.000000,4.000000,4.000000,100.000000,,,,,,,,,,,,,,,,,,,,,,,,,,,,,,,,,,,,,,,,,,,,,,,,,,,,,,,,,,,,,,,,,,,,,,,,,,,,,,,,,,
1607646851.502366,3.000000,0.000000,4198.974121,4195.769043,4201.922852,4203.589844,4199.743652,4197.179688,4184.230957,4203.333496,4202.307617,4206.666504,4196.025879,4212.051270,4184.871582,4186.666504,3540.000000,4.000000,,,,0.000000,4.000000,4.000000,4.000000,4.000000,4.000000,4.000000,4.000000,4.000000,4.000000,4.000000,4.000000,4.000000,4.000000,4.000000,100.000000,,,,,,,,,,,,,,,,,,,,,,,,,,,,,,,,,,,,,,,,,,,,,,,,,,,,,,,,,,,,,,,,,,,,,,,,,,,,,,,,,,
1607646851.510063,4.000000,0.000000,4200.000000,4202.948730,4204.358887,4201.538574,4197.563965,4197.051270,4187.307617,4205.512695,4203.846191,4202.051270,4199.102539,4214.230957,4187.563965,4188.846191,3637.000000,4.000000,,,,0.000000,4.000000,4.000000,4.000000,4.000000,4.000000,4.000000,4.000000,4.000000,4.000000,4.000000,4.000000,4.000000,4.000000,4.000000,100.000000,1.000000,0.000000,0.605761,0.091370,-0.788940,0.047729,0.987320,0.033204,-0.277348,-25.271992,-149.239334,-12.710765,,,,,,,,,,,,,,,,,,,,,,,,,,,,,,,,,,,,,,,,,,,,,,,,,,,,,,,,,,,,,,,,,,,,,,
1607646851.517859,5.000000,0.000000,4194.102539,4204.230957,4201.538574,4201.666504,4202.692383,4191.794922,4188.333496,4201.922852,4201.538574,4203.333496,4199.358887,4208.205078,4193.846191,4186.153809,3438.000000,4.000000,,,,0.000000,4.000000,4.000000,4.000000,4.000000,4.000000,4.000000,4.000000,4.000000,4.000000,4.000000,4.000000,4.000000,4.000000,4.000000,100.000000,,,,,,,,,,,,,,,,,,,,,,,,,,,,,,,,,,,,,,,,,,,,,,,,,,,,,,,,,,,,,,,,,,,,,,,,,,,,,,,,,,
1607646851.525655,6.000000,0.000000,4185.897461,4190.128418,4196.538574,4201.282227,4191.538574,4185.512695,4179.102539,4191.282227,4192.051270,4199.743652,4196.922852,4208.205078,4190.384766,4180.256348,3311.000000,4.000000,,,,0.000000,4.000000,4.000000,4.000000,4.000000,4.000000,4.000000,4.000000,4.000000,4.000000,4.000000,4.000000,4.000000,4.000000,4.000000,100.000000,,,,,,,,,,,,,,,,,,,,,,,,,,,,,,,,,,,,,,,,,,,,,,,,,,,,,,,,,,,,,,,,,,,,,,,,,,,,,,,,,,
1607646851.533451,7.000000,0.000000,4183.974121,4185.256348,4198.717773,4192.948730,4180.897461,4185.769043,4172.820313,4184.743652,4181.410156,4187.948730,4197.307617,4208.205078,4182.692383,4181.282227,3139.000000,4.000000,,,,0.000000,4.000000,4.000000,4.000000,4.000000,4.000000,4.000000,4.000000,4.000000,4.000000,4.000000,4.000000,4.000000,4.000000,4.000000,100.000000,,,,,,,,,,,,,,,,,,,,,,,,,,,,,,,,,,,,,,,,,,,,,,,,,,,,,,,,,,,,,,,,,,,,,,,,,,,,,,,,,,
1607646851.541247,8.000000,0.000000,4190.769043,4206.794922,4202.692383,4192.563965,4191.922852,4188.205078,4183.589844,4187.563965,4181.153809,4181.282227,4196.922852,4205.769043,4186.025879,4189.358887,3471.000000,4.000000,,,,0.000000,4.000000,4.000000,4.000000,4.000000,4.000000,4.000000,4.000000,4.000000,4.000000,4.000000,4.000000,4.000000,4.000000,4.000000,100.000000,2.000000,0.000000,0.606429,0.090698,-0.788574,0.046570,0.997086,0.031250,-0.270512,-26.019684,-150.136566,-13.009842,,,,,,,,,,,,,,,,,,,,,,,,,,,,,,,,,,,,,,,,,,,,,,,,,,,,,,,,,,,,,,,,,,,,,,
1607646851.549043,9.000000,0.000000,4197.179688,4219.743652,4200.641113,4202.179688,4202.436035,4186.410156,4189.102539,4186.538574,4183.333496,4177.307617,4194.615234,4203.589844,4189.615234,4189.615234,3620.000000,4.000000,,,,0.000000,4.000000,4.000000,4.000000,4.000000,4.000000,4.000000,4.000000,4.000000,4.000000,4.000000,4.000000,4.000000,4.000000,4.000000,100.000000,,,,,,,,,,,,,,,,,,,,,,,,,,,,,,,,,,,,,,,,,,,,,,,,,,,,,,,,,,,,,,,,,,,,,,,,,,,,,,,,,,
1607646851.556839,10.000000,0.000000,4196.282227,4208.589844,4195.897461,4200.641113,4199.487305,4184.743652,4177.692383,4182.692383,4180.769043,4182.051270,4194.871582,4201.025879,4184.615234,4185.769043,3584.000000,4.000000,,,,0.000000,4.000000,4.000000,4.000000,4.000000,4.000000,4.000000,4.000000,4.000000,4.000000,4.000000,4.000000,4.000000,4.000000,4.000000,100.000000,,,,,,,,,,,,,2.900658,0.230237,0.479261,0.239751,0.114603,0.804418,0.361303,0.328874,0.332033,0.514027,0.444134,0.105471,0.101043,0.109090,0.081174,0.732676,0.367565,0.643360,0.237238,0.434046,0.442783,0.318575,0.345749,0.465304,0.364806,0.408610,0.587972,0.380652,0.198687,0.124673,0.749423,0.635916,0.213735,0.114455,0.100880,0.802972,0.231674,0.145577,0.146905,0.086323,1.317277,0.559897,0.252690,0.285038,0.181082,2.168925,0.963281,0.472324,0.350412,0.562629,1.551654,0.288153,0.337342,0.209591,0.133506,0.575088,0.136244,0.206780,0.090691,0.075262,2.555402,0.600887,0.231834,0.334682,0.186524,1.408726,0.309414,0.377346,0.259101,0.117925
1607646851.564635,11.000000,0.000000,4197.307617,4205.256348,4200.897461,4200.897461,4201.282227,4191.410156,4174.102539,4191.666504,4188.077148,4202.820313,4198.077148,4207.307617,4188.589844,4193.589844,3429.000000,4.000000,,,,0.000000,4.000000,4.000000,4.000000,4.000000,4.000000,4.000000,4.000000,4.000000,4.000000,4.000000,4.000000,4.000000,4.000000,4.000000,100.000000,,,,,,,,,,,,,,,,,,,,,,,,,,,,,,,,,,,,,,,,,,,,,,,,,,,,,,,,,,,,,,,,,,,,,,,,,,,,,,,,,,
1607646851.572431,12.000000,0.000000,4207.307617,4215.384766,4209.615234,4213.717773,4206.153809,4199.487305,4183.974121,4203.974121,4200.384766,4220.641113,4203.846191,4217.563965,4201.794922,4203.974121,2769.000000,4.000000,,,,0.000000,4.000000,4.000000,4.000000,4.000000,4.000000,4.000000,4.000000,4.000000,4.000000,4.000000,4.000000,4.000000,4.000000,4.000000,100.000000,3.000000,0.000000,0.606676,0.090759,-0.788391,0.046326,1.017105,0.030762,-0.262699,-24.673838,-150.585190,-13.757534,,,,,,,,,,,,,,,,,,,,,,,,,,,,,,,,,,,,,,,,,,,,,,,,,,,,,,,,,,,,,,,,,,,,,,
1607646851.580127,13.000000,0.000000,4214.615234,4218.461426,4208.461426,4213.974121,4202.948730,4200.000000,4188.077148,4207.051270,4202.563965,4218.461426,4205.384766,4219.615234,4205.128418,4204.102539,2450.000000,4.000000,,,,0.000000,4.000000,4.000000,4.000000,4.000000,4.000000,4.000000,4.000000,4.000000,4.000000,4.000000,4.000000,4.000000,4.000000,4.000000,100.000000,,,,,,,,,,,,,,,,,,,,,,,,,,,,,,,,,,,,,,,,,,,,,,,,,,,,,,,,,,,,,,,,,,,,,,,,,,,,,,,,,,
1607646851.587923,14.000000,0.000000,4214.358887,4216.025879,4208.846191,4208.205078,4204.102539,4200.897461,4185.384766,4209.743652,4198.205078,4212.820313,4201.666504,4217.179688,4200.897461,4201.538574,3584.000000,4.000000,,,,0.000000,4.000000,4.000000,4.000000,4.000000,4.000000,4.000000,4.000000,4.000000,4.000000,4.000000,4.000000,4.000000,4.000000,4.000000,100.000000,,,,,,,,,,,,,,,,,,,,,,,,,,,,,,,,,,,,,,,,,,,,,,,,,,,,,,,,,,,,,,,,,,,,,,,,,,,,,,,,,,
1607646851.595719,15.000000,0.000000,4215.128418,4217.948730,4215.128418,4214.487305,4205.897461,4201.794922,4189.487305,4216.282227,4200.128418,4216.153809,4206.794922,4218.333496,4200.512695,4202.948730,3429.000000,4.000000,,,,0.000000,4.000000,4.000000,4.000000,4.000000,4.000000,4.000000,4.000000,4.000000,4.000000,4.000000,4.000000,4.000000,4.000000,4.000000,100.000000,,,,,,,,,,,,,,,,,,,,,,,,,,,,,,,,,,,,,,,,,,,,,,,,,,,,,,,,,,,,,,,,,,,,,,,,,,,,,,,,,,
1607646851.603515,16.000000,0.000000,4213.974121,4216.922852,4211.922852,4212.692383,4201.410156,4199.487305,4200.256348,4217.820313,4210.000000,4216.153809,4212.948730,4216.922852,4202.436035,4200.128418,0.000000,4.000000,,,,0.000000,4.000000,4.000000,4.000000,4.000000,4.000000,4.000000,4.000000,4.000000,4.000000,4.000000,4.000000,4.000000,4.000000,4.000000,100.000000,4.000000,0.000000,0.606876,0.090637,-0.788269,0.046021,0.991714,0.036622,-0.264164,-24.524300,-149.987030,-11.663997,,,,,,,,,,,,,,,,,,,,,,,,,,,,,,,,,,,,,,,,,,,,,,,,,,,,,,,,,,,,,,,,,,,,,,
1607646851.611311,17.000000,0.000000,4206.025879,4203.333496,4203.205078,4195.641113,4201.538574,4199.615234,4203.077148,4213.974121,4213.333496,4213.846191,4205.769043,4215.128418,4199.615234,4192.179688,0.000000,4.000000,,,,0.000000,4.000000,4.000000,4.000000,4.000000,4.000000,4.000000,4.000000,4.000000,4.000000,4.000000,4.000000,4.000000,4.000000,4.000000,100.000000,,,,,,,,,,,,,,,,,,,,,,,,,,,,,,,,,,,,,,,,,,,,,,,,,,,,,,,,,,,,,,,,,,,,,,,,,,,,,,,,,,
1607646851.619107,18.000000,0.000000,4200.641113,4196.282227,4202.436035,4189.358887,4201.025879,4199.358887,4197.948730,4212.563965,4205.128418,4210.897461,4196.922852,4214.358887,4191.794922,4185.256348,0.000000,4.000000,,,,0.000000,4.000000,4.000000,4.000000,4.000000,4.000000,4.000000,4.000000,4.000000,4.000000,4.000000,4.000000,4.000000,4.000000,4.000000,100.000000,,,,,,,,,,,,,,,,,,,,,,,,,,,,,,,,,,,,,,,,,,,,,,,,,,,,,,,,,,,,,,,,,,,,,,,,,,,,,,,,,,
