title:jake_stroop_2, start timestamp:1607646224.069849, stop timestamp:1607646272.624386, headset type:EPOCPLUS, headset serial:4A2C14BB, headset firmware:634, channels:120, sampling rate:eeg_128;mot_32;pow_8, samples:6230      , version:2.1, cqMode:0
Timestamp,EEG.Counter,EEG.Interpolated,EEG.AF3,EEG.F7,EEG.F3,EEG.FC5,EEG.T7,EEG.P7,EEG.O1,EEG.O2,EEG.P8,EEG.T8,EEG.FC6,EEG.F4,EEG.F8,EEG.AF4,EEG.RawCq,EEG.Battery,MarkerIndex,MarkerType,MarkerValueInt,EEG.MarkerHardware,CQ.AF3,CQ.F7,CQ.F3,CQ.FC5,CQ.T7,CQ.P7,CQ.O1,CQ.O2,CQ.P8,CQ.T8,CQ.FC6,CQ.F4,CQ.F8,CQ.AF4,CQ.Overall,MOT.CounterMems,MOT.InterpolatedMems,MOT.Q0,MOT.Q1,MOT.Q2,MOT.Q3,MOT.AccX,MOT.AccY,MOT.AccZ,MOT.MagX,MOT.MagY,MOT.MagZ,POW.AF3.Theta,POW.AF3.Alpha,POW.AF3.BetaL,POW.AF3.BetaH,POW.AF3.Gamma,POW.F7.Theta,POW.F7.Alpha,POW.F7.BetaL,POW.F7.BetaH,POW.F7.Gamma,POW.F3.Theta,POW.F3.Alpha,POW.F3.BetaL,POW.F3.BetaH,POW.F3.Gamma,POW.FC5.Theta,POW.FC5.Alpha,POW.FC5.BetaL,POW.FC5.BetaH,POW.FC5.Gamma,POW.T7.Theta,POW.T7.Alpha,POW.T7.BetaL,POW.T7.BetaH,POW.T7.Gamma,POW.P7.Theta,POW.P7.Alpha,POW.P7.BetaL,POW.P7.BetaH,POW.P7.Gamma,POW.O1.Theta,POW.O1.Alpha,POW.O1.BetaL,POW.O1.BetaH,POW.O1.Gamma,POW.O2.Theta,POW.O2.Alpha,POW.O2.BetaL,POW.O2.BetaH,POW.O2.Gamma,POW.P8.Theta,POW.P8.Alpha,POW.P8.BetaL,POW.P8.BetaH,POW.P8.Gamma,POW.T8.Theta,POW.T8.Alpha,POW.T8.BetaL,POW.T8.BetaH,POW.T8.Gamma,POW.FC6.Theta,POW.FC6.Alpha,POW.FC6.BetaL,POW.FC6.BetaH,POW.FC6.Gamma,POW.F4.Theta,POW.F4.Alpha,POW.F4.BetaL,POW.F4.BetaH,POW.F4.Gamma,POW.F8.Theta,POW.F8.Alpha,POW.F8.BetaL,POW.F8.BetaH,POW.F8.Gamma,POW.AF4.Theta,POW.AF4.Alpha,POW.AF4.BetaL,POW.AF4.BetaH,POW.AF4.Gamma
1607646224.069849,31.000000,0.000000,4217.179688,4182.307617,4209.743652,4217.179688,4189.487305,4201.794922,4202.436035,4198.077148,4200.256348,4201.538574,4125.128418,4203.974121,4201.153809,4200.256348,0.000000,4.000000,,,,0.000000,4.000000,4.000000,2.000000,4.000000,4.000000,4.000000,2.000000,4.000000,4.000000,4.000000,4.000000,4.000000,4.000000,4.000000,66.666664,,,,,,,,,,,,,,,,,,,,,,,,,,,,,,,,,,,,,,,,,,,,,,,,,,,,,,,,,,,,,,,,,,,,,,,,,,,,,,,,,,
1607646224.077745,32.000000,0.000000,4219.487305,4189.487305,4209.102539,4219.615234,4204.615234,4203.461426,4202.436035,4197.563965,4198.461426,4210.000000,4127.436035,4205.128418,4202.948730,4202.051270,0.000000,4.000000,,,,0.000000,4.000000,4.000000,2.000000,4.000000,4.000000,4.000000,2.000000,4.000000,4.000000,4.000000,4.000000,4.000000,4.000000,4.000000,66.666664,8.000000,0.000000,0.596225,0.092468,-0.792664,0.087463,0.997086,-0.029786,-0.280278,-24.673838,-154.024567,-12.561227,,,,,,,,,,,,,,,,,,,,,,,,,,,,,,,,,,,,,,,,,,,,,,,,,,,,,,,,,,,,,,,,,,,,,,
1607646224.085542,33.000000,0.000000,4217.179688,4188.077148,4211.538574,4220.256348,4204.487305,4201.025879,4200.512695,4194.358887,4192.051270,4208.333496,4122.436035,4200.769043,4203.333496,4197.692383,0.000000,4.000000,,,,0.000000,4.000000,4.000000,2.000000,4.000000,4.000000,4.000000,2.000000,4.000000,4.000000,4.000000,4.000000,4.000000,4.000000,4.000000,66.666664,,,,,,,,,,,,,,,,,,,,,,,,,,,,,,,,,,,,,,,,,,,,,,,,,,,,,,,,,,,,,,,,,,,,,,,,,,,,,,,,,,
1607646224.093338,34.000000,0.000000,4215.000000,4181.538574,4211.410156,4218.205078,4194.743652,4201.025879,4199.102539,4194.743652,4191.025879,4202.820313,4119.102539,4200.256348,4203.589844,4195.641113,0.000000,4.000000,,,,0.000000,4.000000,4.000000,2.000000,4.000000,4.000000,4.000000,2.000000,4.000000,4.000000,4.000000,4.000000,4.000000,4.000000,4.000000,66.666664,,,,,,,,,,,,,,,,,,,,,,,,,,,,,,,,,,,,,,,,,,,,,,,,,,,,,,,,,,,,,,,,,,,,,,,,,,,,,,,,,,
1607646224.101134,35.000000,0.000000,4217.563965,4182.051270,4207.436035,4217.179688,4197.563965,4201.410156,4198.333496,4192.307617,4192.179688,4204.743652,4122.692383,4204.102539,4207.563965,4199.358887,0.000000,4.000000,,,,0.000000,4.000000,4.000000,2.000000,4.000000,4.000000,4.000000,2.000000,4.000000,4.000000,4.000000,4.000000,4.000000,4.000000,4.000000,66.666664,,,,,,,,,,,,,,,,,,,,,,,,,,,,,,,,,,,,,,,,,,,,,,,,,,,,,,,,,,,,,,,,,,,,,,,,,,,,,,,,,,
1607646224.108931,36.000000,0.000000,4213.846191,4179.102539,4209.230957,4217.948730,4198.717773,4200.769043,4197.692383,4182.820313,4184.102539,4200.384766,4119.615234,4203.589844,4203.205078,4200.769043,0.000000,4.000000,,,,0.000000,4.000000,4.000000,2.000000,4.000000,4.000000,4.000000,2.000000,4.000000,4.000000,4.000000,4.000000,4.000000,4.000000,4.000000,66.666664,9.000000,0.000000,0.596126,0.092468,-0.792725,0.087585,1.003922,-0.043458,-0.271000,-23.926146,-151.332870,-11.813535,,,,,,,,,,,,,,,,,,,,,,,,,,,,,,,,,,,,,,,,,,,,,,,,,,,,,,,,,,,,,,,,,,,,,,
1607646224.116727,37.000000,0.000000,4216.025879,4178.589844,4211.794922,4217.307617,4192.820313,4199.358887,4198.589844,4181.025879,4182.436035,4197.051270,4117.179688,4202.692383,4202.436035,4199.743652,0.000000,4.000000,,,,0.000000,4.000000,4.000000,2.000000,4.000000,4.000000,4.000000,2.000000,4.000000,4.000000,4.000000,4.000000,4.000000,4.000000,4.000000,66.666664,,,,,,,,,,,,,,,,,,,,,,,,,,,,,,,,,,,,,,,,,,,,,,,,,,,,,,,,,,,,,,,,,,,,,,,,,,,,,,,,,,
1607646224.124523,38.000000,0.000000,4226.153809,4187.563965,4212.179688,4218.333496,4194.358887,4198.717773,4198.077148,4186.922852,4190.641113,4208.461426,4122.307617,4204.358887,4212.051270,4201.153809,0.000000,4.000000,,,,0.000000,4.000000,4.000000,2.000000,4.000000,4.000000,4.000000,2.000000,4.000000,4.000000,4.000000,4.000000,4.000000,4.000000,4.000000,66.666664,,,,,,,,,,,,,,,,,,,,,,,,,,,,,,,,,,,,,,,,,,,,,,,,,,,,,,,,,,,,,,,,,,,,,,,,,,,,,,,,,,
1607646224.132319,39.000000,0.000000,4224.615234,4189.871582,4212.563965,4218.077148,4202.307617,4200.000000,4197.820313,4186.794922,4192.436035,4214.615234,4121.794922,4204.743652,4213.589844,4202.051270,0.000000,4.000000,,,,0.000000,4.000000,4.000000,2.000000,4.000000,4.000000,4.000000,2.000000,4.000000,4.000000,4.000000,4.000000,4.000000,4.000000,4.000000,66.666664,,,,,,,,,,,,,,,,,,,,,,,,,,,,,,,,,,,,,,,,,,,,,,,,,,,,,,,,,,,,,,,,,,,,,,,,,,,,,,,,,,
1607646224.140116,40.000000,0.000000,4216.025879,4182.948730,4211.922852,4218.717773,4207.692383,4199.358887,4199.487305,4185.128418,4186.794922,4207.820313,4116.282227,4205.256348,4209.230957,4201.282227,0.000000,4.000000,,,,0.000000,4.000000,4.000000,2.000000,4.000000,4.000000,4.000000,2.000000,4.000000,4.000000,4.000000,4.000000,4.000000,4.000000,4.000000,66.666664,10.000000,0.000000,0.595998,0.092651,-0.792786,0.087708,0.996597,-0.035157,-0.274418,-24.374762,-152.080566,-10.318151,,,,,,,,,,,,,,,,,,,,,,,,,,,,,,,,,,,,,,,,,,,,,,,,,,,,,,,,,,,,,,,,,,,,,,
1607646224.148012,41.000000,0.000000,4218.461426,4183.974121,4214.487305,4223.205078,4203.077148,4196.922852,4198.589844,4186.410156,4185.641113,4207.563965,4116.794922,4203.333496,4211.153809,4200.384766,0.000000,4.000000,,,,0.000000,4.000000,4.000000,2.000000,4.000000,4.000000,4.000000,2.000000,4.000000,4.000000,4.000000,4.000000,4.000000,4.000000,4.000000,66.666664,,,,,,,,,,,,,,,,,,,,,,,,,,,,,,,,,,,,,,,,,,,,,,,,,,,,,,,,,,,,,,,,,,,,,,,,,,,,,,,,,,
1607646224.155808,42.000000,0.000000,4224.615234,4189.230957,4216.282227,4225.256348,4194.487305,4195.000000,4197.948730,4193.717773,4194.102539,4216.538574,4121.410156,4203.589844,4215.897461,4202.948730,0.000000,4.000000,,,,0.000000,4.000000,4.000000,2.000000,4.000000,4.000000,4.000000,2.000000,4.000000,4.000000,4.000000,4.000000,4.000000,4.000000,4.000000,66.666664,,,,,,,,,,,,,0.601573,0.651956,0.680238,0.249806,0.173847,0.432817,0.710134,0.573612,0.475472,0.206901,0.120905,0.096151,0.032875,0.069903,0.042108,0.169135,0.227979,0.071336,0.138904,0.043746,0.188135,0.583268,0.144434,0.551358,0.306715,0.649451,0.841785,0.277703,0.233528,0.148738,0.018574,0.051319,0.026200,0.023520,0.030814,0.376419,0.651729,0.292008,0.087722,0.115632,1.247319,1.543190,0.726439,0.262675,0.157601,1.813037,1.823394,0.799225,0.248155,0.164427,0.983460,1.012127,0.299888,0.305825,0.183800,0.379030,0.600636,0.162432,0.104771,0.075664,1.146259,1.520435,0.724924,0.286469,0.164679,0.589529,0.979616,0.466416,0.193164,0.123952
1607646224.163605,43.000000,0.000000,4218.077148,4188.205078,4216.410156,4219.230957,4195.000000,4198.333496,4199.871582,4199.743652,4202.692383,4217.051270,4121.794922,4208.077148,4217.948730,4204.615234,0.000000,4.000000,,,,0.000000,4.000000,4.000000,2.000000,4.000000,4.000000,4.000000,2.000000,4.000000,4.000000,4.000000,4.000000,4.000000,4.000000,4.000000,66.666664,,,,,,,,,,,,,,,,,,,,,,,,,,,,,,,,,,,,,,,,,,,,,,,,,,,,,,,,,,,,,,,,,,,,,,,,,,,,,,,,,,
1607646224.171401,44.000000,0.000000,4205.641113,4187.692383,4214.230957,4217.051270,4201.410156,4201.025879,4197.307617,4192.307617,4198.846191,4205.384766,4121.153809,4207.307617,4213.333496,4200.256348,0.000000,4.000000,,,,0.000000,4.000000,4.000000,2.000000,4.000000,4.000000,4.000000,2.000000,4.000000,4.000000,4.000000,4.000000,4.000000,4.000000,4.000000,66.666664,11.000000,0.000000,0.596127,0.092346,-0.792725,0.087708,0.996597,-0.028809,-0.284184,-24.524300,-153.426407,-10.916305,,,,,,,,,,,,,,,,,,,,,,,,,,,,,,,,,,,,,,,,,,,,,,,,,,,,,,,,,,,,,,,,,,,,,,
1607646224.179197,45.000000,0.000000,4203.717773,4187.948730,4214.230957,4224.615234,4203.589844,4196.153809,4194.871582,4186.282227,4190.641113,4200.641113,4121.922852,4203.333496,4206.282227,4199.358887,0.000000,4.000000,,,,0.000000,4.000000,4.000000,2.000000,4.000000,4.000000,4.000000,2.000000,4.000000,4.000000,4.000000,4.000000,4.000000,4.000000,4.000000,66.666664,,,,,,,,,,,,,,,,,,,,,,,,,,,,,,,,,,,,,,,,,,,,,,,,,,,,,,,,,,,,,,,,,,,,,,,,,,,,,,,,,,
1607646224.186993,46.000000,0.000000,4205.256348,4185.384766,4217.307617,4224.358887,4197.563965,4192.563965,4196.538574,4191.025879,4190.000000,4206.410156,4122.307617,4203.205078,4205.000000,4203.333496,0.000000,4.000000,,,,0.000000,4.000000,4.000000,2.000000,4.000000,4.000000,4.000000,2.000000,4.000000,4.000000,4.000000,4.000000,4.000000,4.000000,4.000000,66.666664,,,,,,,,,,,,,,,,,,,,,,,,,,,,,,,,,,,,,,,,,,,,,,,,,,,,,,,,,,,,,,,,,,,,,,,,,,,,,,,,,,
1607646224.194790,47.000000,0.000000,4202.563965,4182.820313,4217.051270,4217.692383,4186.666504,4194.743652,4196.025879,4190.769043,4189.358887,4205.769043,4122.436035,4203.974121,4203.846191,4199.358887,0.000000,4.000000,,,,0.000000,4.000000,4.000000,2.000000,4.000000,4.000000,4.000000,2.000000,4.000000,4.000000,4.000000,4.000000,4.000000,4.000000,4.000000,66.666664,,,,,,,,,,,,,,,,,,,,,,,,,,,,,,,,,,,,,,,,,,,,,,,,,,,,,,,,,,,,,,,,,,,,,,,,,,,,,,,,,,
1607646224.202586,48.000000,0.000000,4208.205078,4184.743652,4215.128418,4218.717773,4188.846191,4193.717773,4195.641113,4186.410156,4185.128418,4199.615234,4123.846191,4203.846191,4202.307617,4198.077148,0.000000,4.000000,,,,0.000000,4.000000,4.000000,2.000000,4.000000,4.000000,4.000000,2.000000,4.000000,4.000000,4.000000,4.000000,4.000000,4.000000,4.000000,66.666664,12.000000,0.000000,0.596036,0.092468,-0.792725,0.088196,0.996109,-0.030274,-0.280766,-25.271992,-154.622726,-11.215381,,,,,,,,,,,,,,,,,,,,,,,,,,,,,,,,,,,,,,,,,,,,,,,,,,,,,,,,,,,,,,,,,,,,,,
1607646224.210382,49.000000,0.000000,4215.000000,4187.436035,4214.871582,4218.974121,4195.641113,4188.846191,4199.615234,4187.820313,4185.384766,4199.743652,4125.641113,4205.384766,4199.358887,4201.410156,0.000000,4.000000,,,,0.000000,4.000000,4.000000,2.000000,4.000000,4.000000,4.000000,2.000000,4.000000,4.000000,4.000000,4.000000,4.000000,4.000000,4.000000,66.666664,,,,,,,,,,,,,,,,,,,,,,,,,,,,,,,,,,,,,,,,,,,,,,,,,,,,,,,,,,,,,,,,,,,,,,,,,,,,,,,,,,
1607646224.218278,50.000000,0.000000,4203.461426,4183.717773,4213.205078,4214.615234,4186.794922,4187.948730,4196.666504,4185.641113,4183.589844,4197.307617,4121.538574,4202.948730,4187.563965,4193.846191,0.000000,4.000000,,,,0.000000,4.000000,4.000000,2.000000,4.000000,4.000000,4.000000,2.000000,4.000000,4.000000,4.000000,4.000000,4.000000,4.000000,4.000000,66.666664,,,,,,,,,,,,,,,,,,,,,,,,,,,,,,,,,,,,,,,,,,,,,,,,,,,,,,,,,,,,,,,,,,,,,,,,,,,,,,,,,,
1607646224.226075,51.000000,0.000000,4195.128418,4179.871582,4210.641113,4214.358887,4186.666504,4192.948730,4192.307617,4182.563965,4182.563965,4192.307617,4118.205078,4199.487305,4184.743652,4187.692383,0.000000,4.000000,,,,0.000000,4.000000,4.000000,2.000000,4.000000,4.000000,4.000000,2.000000,4.000000,4.000000,4.000000,4.000000,4.000000,4.000000,4.000000,66.666664,,,,,,,,,,,,,,,,,,,,,,,,,,,,,,,,,,,,,,,,,,,,,,,,,,,,,,,,,,,,,,,,,,,,,,,,,,,,,,,,,,
1607646224.233871,52.000000,0.000000,4210.512695,4183.589844,4213.333496,4219.230957,4200.641113,4205.000000,4198.461426,4187.436035,4195.128418,4200.384766,4127.179688,4203.333496,4200.000000,4199.487305,0.000000,4.000000,,,,0.000000,4.000000,4.000000,2.000000,4.000000,4.000000,4.000000,2.000000,4.000000,4.000000,4.000000,4.000000,4.000000,4.000000,4.000000,66.666664,13.000000,0.000000,0.595974,0.092346,-0.792786,0.088196,0.991714,-0.036622,-0.278325,-24.374762,-151.781494,-11.813535,,,,,,,,,,,,,,,,,,,,,,,,,,,,,,,,,,,,,,,,,,,,,,,,,,,,,,,,,,,,,,,,,,,,,,
1607646224.241667,53.000000,0.000000,4220.128418,4189.358887,4217.051270,4220.897461,4200.641113,4215.512695,4202.436035,4189.487305,4202.820313,4208.461426,4131.025879,4206.282227,4203.077148,4208.077148,0.000000,4.000000,,,,0.000000,4.000000,4.000000,2.000000,4.000000,4.000000,4.000000,2.000000,4.000000,4.000000,4.000000,4.000000,4.000000,4.000000,4.000000,66.666664,,,,,,,,,,,,,,,,,,,,,,,,,,,,,,,,,,,,,,,,,,,,,,,,,,,,,,,,,,,,,,,,,,,,,,,,,,,,,,,,,,
1607646224.249464,54.000000,0.000000,4206.282227,4187.820313,4212.948730,4217.436035,4200.641113,4214.743652,4198.846191,4183.077148,4189.358887,4197.179688,4117.692383,4201.922852,4183.974121,4197.179688,0.000000,4.000000,,,,0.000000,4.000000,4.000000,2.000000,4.000000,4.000000,4.000000,2.000000,4.000000,4.000000,4.000000,4.000000,4.000000,4.000000,4.000000,66.666664,,,,,,,,,,,,,,,,,,,,,,,,,,,,,,,,,,,,,,,,,,,,,,,,,,,,,,,,,,,,,,,,,,,,,,,,,,,,,,,,,,
1607646224.257260,55.000000,0.000000,4197.179688,4186.282227,4210.256348,4215.128418,4208.717773,4213.846191,4198.077148,4182.563965,4186.538574,4191.410156,4113.846191,4197.692383,4181.538574,4191.794922,0.000000,4.000000,,,,0.000000,4.000000,4.000000,2.000000,4.000000,4.000000,4.000000,2.000000,4.000000,4.000000,4.000000,4.000000,4.000000,4.000000,4.000000,66.666664,,,,,,,,,,,,,,,,,,,,,,,,,,,,,,,,,,,,,,,,,,,,,,,,,,,,,,,,,,,,,,,,,,,,,,,,,,,,,,,,,,
1607646224.265056,56.000000,0.000000,4202.179688,4188.461426,4215.641113,4221.922852,4199.487305,4217.820313,4200.641113,4188.205078,4202.948730,4201.666504,4124.871582,4202.051270,4197.179688,4201.794922,0.000000,4.000000,,,,0.000000,4.000000,4.000000,2.000000,4.000000,4.000000,4.000000,2.000000,4.000000,4.000000,4.000000,4.000000,4.000000,4.000000,4.000000,66.666664,14.000000,0.000000,0.596064,0.092346,-0.792725,0.088135,0.985855,-0.033692,-0.283207,-23.776608,-152.977798,-11.963073,,,,,,,,,,,,,,,,,,,,,,,,,,,,,,,,,,,,,,,,,,,,,,,,,,,,,,,,,,,,,,,,,,,,,,
1607646224.272852,57.000000,0.000000,4204.230957,4185.641113,4218.589844,4226.666504,4188.717773,4218.846191,4200.641113,4188.717773,4202.692383,4203.846191,4125.256348,4205.000000,4200.128418,4204.871582,0.000000,4.000000,,,,0.000000,4.000000,4.000000,2.000000,4.000000,4.000000,4.000000,2.000000,4.000000,4.000000,4.000000,4.000000,4.000000,4.000000,4.000000,66.666664,,,,,,,,,,,,,,,,,,,,,,,,,,,,,,,,,,,,,,,,,,,,,,,,,,,,,,,,,,,,,,,,,,,,,,,,,,,,,,,,,,
1607646224.280649,58.000000,0.000000,4199.358887,4185.256348,4216.153809,4224.358887,4196.410156,4215.769043,4198.846191,4186.794922,4189.871582,4197.436035,4118.333496,4201.794922,4195.512695,4197.820313,0.000000,4.000000,,,,0.000000,4.000000,4.000000,2.000000,4.000000,4.000000,4.000000,2.000000,4.000000,4.000000,4.000000,4.000000,4.000000,4.000000,4.000000,66.666664,,,,,,,,,,,,,0.559775,0.564731,0.749002,0.241871,0.195617,0.514436,0.705080,0.492690,0.464426,0.213721,0.088860,0.081384,0.030097,0.083091,0.045170,0.172950,0.197578,0.067488,0.151645,0.042950,0.240313,0.608023,0.145580,0.626068,0.314559,0.742855,0.756841,0.305055,0.247819,0.155613,0.015449,0.050545,0.022730,0.020504,0.030194,0.348953,0.667796,0.255724,0.094514,0.118982,1.307505,1.531516,0.647565,0.237786,0.168184,1.914073,1.785163,0.839639,0.213982,0.179444,1.051277,1.080103,0.380216,0.288373,0.173382,0.349123,0.568013,0.178929,0.090963,0.070983,1.323903,1.619062,0.779951,0.271749,0.164944,0.684632,1.083849,0.487648,0.183942,0.133210
1607646224.288545,59.000000,0.000000,4198.846191,4193.974121,4215.897461,4226.666504,4207.948730,4216.153809,4197.307617,4186.794922,4192.948730,4197.692383,4122.436035,4206.025879,4198.974121,4201.282227,0.000000,4.000000,,,,0.000000,4.000000,4.000000,2.000000,4.000000,4.000000,4.000000,2.000000,4.000000,4.000000,4.000000,4.000000,4.000000,4.000000,4.000000,66.666664,,,,,,,,,,,,,,,,,,,,,,,,,,,,,,,,,,,,,,,,,,,,,,,,,,,,,,,,,,,,,,,,,,,,,,,,,,,,,,,,,,
1607646224.296342,60.000000,0.000000,4210.128418,4199.487305,4219.102539,4229.743652,4215.769043,4220.769043,4198.461426,4187.179688,4200.641113,4202.179688,4126.922852,4214.230957,4201.282227,4210.128418,0.000000,4.000000,,,,0.000000,4.000000,4.000000,2.000000,4.000000,4.000000,4.000000,2.000000,4.000000,4.000000,4.000000,4.000000,4.000000,4.000000,4.000000,66.666664,15.000000,0.000000,0.596064,0.092346,-0.792725,0.088135,0.993667,-0.027832,-0.274907,-26.019684,-153.276871,-10.617228,,,,,,,,,,,,,,,,,,,,,,,,,,,,,,,,,,,,,,,,,,,,,,,,,,,,,,,,,,,,,,,,,,,,,,
1607646224.304138,61.000000,0.000000,4227.692383,4194.743652,4218.333496,4227.307617,4216.153809,4216.153809,4201.282227,4187.692383,4200.897461,4202.436035,4123.846191,4216.666504,4198.717773,4206.538574,0.000000,4.000000,,,,0.000000,4.000000,4.000000,2.000000,4.000000,4.000000,4.000000,2.000000,4.000000,4.000000,4.000000,4.000000,4.000000,4.000000,4.000000,66.666664,,,,,,,,,,,,,,,,,,,,,,,,,,,,,,,,,,,,,,,,,,,,,,,,,,,,,,,,,,,,,,,,,,,,,,,,,,,,,,,,,,
1607646224.311935,62.000000,0.000000,4230.384766,4188.205078,4215.512695,4225.897461,4200.512695,4202.948730,4200.128418,4188.333496,4197.563965,4202.051270,4122.948730,4212.563965,4199.358887,4201.025879,0.000000,4.000000,,,,0.000000,4.000000,4.000000,2.000000,4.000000,4.000000,4.000000,2.000000,4.000000,4.000000,4.000000,4.000000,4.000000,4.000000,4.000000,66.666664,,,,,,,,,,,,,,,,,,,,,,,,,,,,,,,,,,,,,,,,,,,,,,,,,,,,,,,,,,,,,,,,,,,,,,,,,,,,,,,,,,
1607646224.319731,63.000000,0.000000,4218.846191,4186.025879,4217.307617,4222.948730,4187.179688,4201.410156,4195.641113,4186.153809,4193.717773,4201.922852,4122.436035,4206.282227,4199.230957,4200.769043,0.000000,4.000000,,,,0.000000,4.000000,4.000000,2.000000,4.000000,4.000000,4.000000,2.000000,4.000000,4.000000,4.000000,4.000000,4.000000,4.000000,4.000000,66.666664,,,,,,,,,,,,,,,,,,,,,,,,,,,,,,,,,,,,,,,,,,,,,,,,,,,,,,,,,,,,,,,,,,,,,,,,,,,,,,,,,,
1607646224.327528,64.000000,0.000000,4216.153809,4186.666504,4218.205078,4217.051270,4200.000000,4209.487305,4195.897461,4182.436035,4193.846191,4199.358887,4121.666504,4201.153809,4196.794922,4199.487305,1237.000000,4.000000,,,,0.000000,4.000000,4.000000,2.000000,4.000000,4.000000,4.000000,2.000000,4.000000,4.000000,4.000000,4.000000,4.000000,4.000000,4.000000,66.666664,16.000000,0.000000,0.596101,0.092163,-0.792725,0.088074,0.990738,-0.041993,-0.285161,-23.327993,-154.174103,-11.215381,,,,,,,,,,,,,,,,,,,,,,,,,,,,,,,,,,,,,,,,,,,,,,,,,,,,,,,,,,,,,,,,,,,,,,
1607646224.335324,65.000000,0.000000,4220.384766,4186.922852,4217.307617,4221.538574,4214.487305,4212.051270,4198.717773,4185.512695,4200.641113,4200.769043,4123.589844,4203.974121,4200.384766,4198.589844,2354.000000,4.000000,,,,0.000000,4.000000,4.000000,2.000000,4.000000,4.000000,4.000000,2.000000,4.000000,4.000000,4.000000,4.000000,4.000000,4.000000,4.000000,66.666664,,,,,,,,,,,,,,,,,,,,,,,,,,,,,,,,,,,,,,,,,,,,,,,,,,,,,,,,,,,,,,,,,,,,,,,,,,,,,,,,,,
1607646224.343121,66.000000,0.000000,4217.051270,4184.743652,4222.948730,4230.384766,4206.922852,4214.358887,4199.487305,4194.102539,4202.436035,4208.846191,4124.358887,4207.436035,4203.589844,4200.384766,3245.000000,4.000000,,,,0.000000,4.000000,4.000000,2.000000,4.000000,4.000000,4.000000,2.000000,4.000000,4.000000,4.000000,4.000000,4.000000,4.000000,4.000000,66.666664,,,,,,,,,,,,,,,,,,,,,,,,,,,,,,,,,,,,,,,,,,,,,,,,,,,,,,,,,,,,,,,,,,,,,,,,,,,,,,,,,,
1607646224.350917,67.000000,0.000000,4211.794922,4189.615234,4225.897461,4229.743652,4197.307617,4218.461426,4199.743652,4198.589844,4202.179688,4215.897461,4124.615234,4205.512695,4204.487305,4205.256348,3508.000000,4.000000,,,,0.000000,4.000000,4.000000,2.000000,4.000000,4.000000,4.000000,2.000000,4.000000,4.000000,4.000000,4.000000,4.000000,4.000000,4.000000,66.666664,,,,,,,,,,,,,,,,,,,,,,,,,,,,,,,,,,,,,,,,,,,,,,,,,,,,,,,,,,,,,,,,,,,,,,,,,,,,,,,,,,
1607646224.358714,68.000000,0.000000,4211.794922,4199.358887,4223.589844,4227.179688,4209.743652,4217.563965,4198.589844,4196.666504,4210.000000,4217.179688,4126.153809,4209.487305,4209.487305,4212.051270,3654.000000,4.000000,,,,0.000000,4.000000,4.000000,2.000000,4.000000,4.000000,4.000000,2.000000,4.000000,4.000000,4.000000,4.000000,4.000000,4.000000,4.000000,66.666664,17.000000,0.000000,0.596111,0.092102,-0.792725,0.088074,1.009781,-0.036622,-0.278325,-25.122454,-152.529190,-12.262150,,,,,,,,,,,,,,,,,,,,,,,,,,,,,,,,,,,,,,,,,,,,,,,,,,,,,,,,,,,,,,,,,,,,,,
1607646224.366610,69.000000,0.000000,4213.846191,4201.153809,4224.743652,4229.871582,4218.205078,4217.563965,4196.410156,4196.410156,4214.615234,4217.820313,4129.102539,4215.512695,4215.000000,4215.897461,3406.000000,4.000000,,,,0.000000,4.000000,4.000000,2.000000,4.000000,4.000000,4.000000,2.000000,4.000000,4.000000,4.000000,4.000000,4.000000,4.000000,4.000000,66.666664,,,,,,,,,,,,,,,,,,,,,,,,,,,,,,,,,,,,,,,,,,,,,,,,,,,,,,,,,,,,,,,,,,,,,,,,,,,,,,,,,,
1607646224.374406,70.000000,0.000000,4214.743652,4199.230957,4230.512695,4231.410156,4203.846191,4219.487305,4197.436035,4201.025879,4213.077148,4218.461426,4132.051270,4215.769043,4217.051270,4214.871582,1625.000000,4.000000,,,,0.000000,4.000000,4.000000,2.000000,4.000000,4.000000,4.000000,2.000000,4.000000,4.000000,4.000000,4.000000,4.000000,4.000000,4.000000,66.666664,,,,,,,,,,,,,,,,,,,,,,,,,,,,,,,,,,,,,,,,,,,,,,,,,,,,,,,,,,,,,,,,,,,,,,,,,,,,,,,,,,
1607646224.382302,71.000000,0.000000,4215.256348,4199.871582,4229.615234,4229.871582,4204.871582,4217.692383,4199.743652,4201.538574,4214.230957,4218.333496,4134.871582,4215.128418,4218.205078,4215.512695,3142.000000,4.000000,,,,0.000000,4.000000,4.000000,2.000000,4.000000,4.000000,4.000000,2.000000,4.000000,4.000000,4.000000,4.000000,4.000000,4.000000,4.000000,66.666664,,,,,,,,,,,,,,,,,,,,,,,,,,,,,,,,,,,,,,,,,,,,,,,,,,,,,,,,,,,,,,,,,,,,,,,,,,,,,,,,,,
1607646224.390098,72.000000,0.000000,4216.282227,4196.922852,4225.769043,4230.256348,4218.717773,4218.205078,4199.102539,4198.717773,4217.051270,4221.025879,4137.692383,4216.538574,4217.307617,4216.666504,3467.000000,4.000000,,,,0.000000,4.000000,4.000000,2.000000,4.000000,4.000000,4.000000,2.000000,4.000000,4.000000,4.000000,4.000000,4.000000,4.000000,4.000000,66.666664,18.000000,0.000000,0.596102,0.092102,-0.792725,0.088135,0.987808,-0.020996,-0.276371,-23.327993,-153.426407,-11.215381,,,,,,,,,,,,,,,,,,,,,,,,,,,,,,,,,,,,,,,,,,,,,,,,,,,,,,,,,,,,,,,,,,,,,,
1607646224.397895,73.000000,0.000000,4217.436035,4195.897461,4229.230957,4228.589844,4207.820313,4219.102539,4199.230957,4199.871582,4213.589844,4221.282227,4137.179688,4217.307617,4215.512695,4214.615234,3638.000000,4.000000,,,,0.000000,4.000000,4.000000,2.000000,4.000000,4.000000,4.000000,2.000000,4.000000,4.000000,4.000000,4.000000,4.000000,4.000000,4.000000,66.666664,,,,,,,,,,,,,,,,,,,,,,,,,,,,,,,,,,,,,,,,,,,,,,,,,,,,,,,,,,,,,,,,,,,,,,,,,,,,,,,,,,
1607646224.405691,74.000000,0.000000,4218.974121,4197.307617,4231.922852,4226.666504,4198.846191,4215.256348,4199.487305,4200.384766,4205.769043,4214.102539,4130.128418,4215.384766,4211.410156,4209.230957,3597.000000,4.000000,,,,0.000000,4.000000,4.000000,2.000000,4.000000,4.000000,4.000000,2.000000,4.000000,4.000000,4.000000,4.000000,4.000000,4.000000,4.000000,66.666664,,,,,,,,,,,,,0.537363,0.458277,0.799744,0.222637,0.211293,0.588183,0.660864,0.410692,0.454169,0.225686,0.088176,0.073534,0.029437,0.091735,0.049447,0.176573,0.171566,0.069948,0.159684,0.044386,0.280877,0.587628,0.146690,0.714860,0.331700,0.787692,0.610333,0.310520,0.252301,0.160777,0.015344,0.049762,0.022528,0.018076,0.031676,0.334225,0.636305,0.212635,0.097851,0.121363,1.337034,1.358502,0.538718,0.212819,0.174599,2.047318,1.571381,0.821344,0.188025,0.193844,1.166820,1.074947,0.460291,0.259066,0.161325,0.317263,0.490762,0.184498,0.075005,0.063962,1.579376,1.586943,0.815498,0.252708,0.166639,0.806786,1.134513,0.502015,0.171378,0.142510
1607646224.413487,75.000000,0.000000,4214.615234,4190.897461,4230.641113,4229.102539,4216.538574,4214.615234,4200.384766,4196.922852,4201.922852,4208.846191,4123.333496,4211.794922,4204.358887,4202.436035,3480.000000,4.000000,,,,0.000000,4.000000,4.000000,2.000000,4.000000,4.000000,4.000000,2.000000,4.000000,4.000000,4.000000,4.000000,4.000000,4.000000,4.000000,66.666664,,,,,,,,,,,,,,,,,,,,,,,,,,,,,,,,,,,,,,,,,,,,,,,,,,,,,,,,,,,,,,,,,,,,,,,,,,,,,,,,,,
1607646224.421284,76.000000,0.000000,4207.692383,4190.256348,4229.871582,4231.666504,4218.589844,4219.743652,4202.563965,4197.692383,4208.589844,4213.205078,4129.102539,4210.512695,4206.410156,4206.153809,3124.000000,4.000000,,,,0.000000,4.000000,4.000000,2.000000,4.000000,4.000000,4.000000,2.000000,4.000000,4.000000,4.000000,4.000000,4.000000,4.000000,4.000000,66.666664,19.000000,0.000000,0.596211,0.091980,-0.792664,0.088074,1.003922,-0.030762,-0.274418,-25.720608,-152.678726,-10.916305,,,,,,,,,,,,,,,,,,,,,,,,,,,,,,,,,,,,,,,,,,,,,,,,,,,,,,,,,,,,,,,,,,,,,,
1607646224.429080,77.000000,0.000000,4212.051270,4197.436035,4232.692383,4230.897461,4203.205078,4218.846191,4202.692383,4203.589844,4217.692383,4224.743652,4139.487305,4217.692383,4218.461426,4217.307617,2284.000000,4.000000,,,,0.000000,4.000000,4.000000,2.000000,4.000000,4.000000,4.000000,2.000000,4.000000,4.000000,4.000000,4.000000,4.000000,4.000000,4.000000,66.666664,,,,,,,,,,,,,,,,,,,,,,,,,,,,,,,,,,,,,,,,,,,,,,,,,,,,,,,,,,,,,,,,,,,,,,,,,,,,,,,,,,
1607646224.436876,78.000000,0.000000,4218.974121,4196.794922,4233.974121,4230.512695,4205.769043,4215.000000,4201.922852,4206.025879,4217.307617,4229.871582,4140.384766,4223.205078,4222.179688,4220.512695,3597.000000,4.000000,,,,0.000000,4.000000,4.000000,2.000000,4.000000,4.000000,4.000000,2.000000,4.000000,4.000000,4.000000,4.000000,4.000000,4.000000,4.000000,66.666664,,,,,,,,,,,,,,,,,,,,,,,,,,,,,,,,,,,,,,,,,,,,,,,,,,,,,,,,,,,,,,,,,,,,,,,,,,,,,,,,,,
1607646224.444772,79.000000,0.000000,4214.615234,4194.102539,4233.077148,4232.820313,4214.871582,4218.717773,4202.563965,4204.871582,4215.384766,4223.461426,4138.077148,4218.846191,4217.436035,4213.461426,3480.000000,4.000000,,,,0.000000,4.000000,4.000000,2.000000,4.000000,4.000000,4.000000,2.000000,4.000000,4.000000,4.000000,4.000000,4.000000,4.000000,4.000000,66.666664,,,,,,,,,,,,,,,,,,,,,,,,,,,,,,,,,,,,,,,,,,,,,,,,,,,,,,,,,,,,,,,,,,,,,,,,,,,,,,,,,,
1607646224.452569,80.000000,0.000000,4212.179688,4196.410156,4229.743652,4227.692383,4216.922852,4221.282227,4201.922852,4202.436035,4215.128418,4215.128418,4138.077148,4213.461426,4216.153809,4205.512695,3124.000000,4.000000,,,,0.000000,4.000000,4.000000,2.000000,4.000000,4.000000,4.000000,2.000000,4.000000,4.000000,4.000000,4.000000,4.000000,4.000000,4.000000,66.666664,20.000000,0.000000,0.596093,0.092102,-0.792725,0.088196,0.997574,-0.032227,-0.284184,-23.776608,-154.921799,-10.916305,,,,,,,,,,,,,,,,,,,,,,,,,,,,,,,,,,,,,,,,,,,,,,,,,,,,,,,,,,,,,,,,,,,,,,
1607646224.460365,81.000000,0.000000,4211.538574,4190.384766,4226.538574,4220.897461,4212.307617,4215.769043,4198.846191,4199.487305,4209.230957,4214.102539,4131.538574,4207.692383,4210.384766,4201.153809,2284.000000,4.000000,,,,0.000000,4.000000,4.000000,2.000000,4.000000,4.000000,4.000000,2.000000,4.000000,4.000000,4.000000,4.000000,4.000000,4.000000,4.000000,66.666664,,,,,,,,,,,,,,,,,,,,,,,,,,,,,,,,,,,,,,,,,,,,,,,,,,,,,,,,,,,,,,,,,,,,,,,,,,,,,,,,,,
1607646224.468161,82.000000,0.000000,4204.230957,4182.820313,4227.179688,4224.743652,4201.410156,4213.333496,4198.205078,4199.102539,4203.589844,4215.641113,4121.282227,4202.307617,4203.589844,4200.128418,3597.000000,4.000000,,,,0.000000,4.000000,4.000000,2.000000,4.000000,4.000000,4.000000,2.000000,4.000000,4.000000,4.000000,4.000000,4.000000,4.000000,4.000000,66.666664,,,,,,,,,,,,,,,,,,,,,,,,,,,,,,,,,,,,,,,,,,,,,,,,,,,,,,,,,,,,,,,,,,,,,,,,,,,,,,,,,,
1607646224.475957,83.000000,0.000000,4203.589844,4185.512695,4227.307617,4229.102539,4197.307617,4215.256348,4200.512695,4198.077148,4203.589844,4214.615234,4124.102539,4207.436035,4209.102539,4199.358887,3480.000000,4.000000,,,,0.000000,4.000000,4.000000,2.000000,4.000000,4.000000,4.000000,2.000000,4.000000,4.000000,4.000000,4.000000,4.000000,4.000000,4.000000,66.666664,,,,,,,,,,,,,,,,,,,,,,,,,,,,,,,,,,,,,,,,,,,,,,,,,,,,,,,,,,,,,,,,,,,,,,,,,,,,,,,,,,
1607646224.483754,84.000000,0.000000,4210.256348,4190.897461,4227.436035,4225.128418,4201.410156,4213.974121,4201.538574,4197.563965,4203.589844,4215.256348,4136.153809,4215.897461,4218.717773,4201.794922,3124.000000,4.000000,,,,0.000000,4.000000,4.000000,2.000000,4.000000,4.000000,4.000000,2.000000,4.000000,4.000000,4.000000,4.000000,4.000000,4.000000,4.000000,66.666664,21.000000,0.000000,0.596211,0.091919,-0.792664,0.088135,0.989273,-0.022461,-0.283696,-24.972916,-152.977798,-10.916305,,,,,,,,,,,,,,,,,,,,,,,,,,,,,,,,,,,,,,,,,,,,,,,,,,,,,,,,,,,,,,,,,,,,,,
1607646224.491550,85.000000,0.000000,4212.692383,4194.230957,4230.512695,4224.358887,4201.794922,4213.461426,4201.922852,4200.512695,4207.051270,4217.307617,4141.410156,4216.153809,4215.641113,4208.461426,2284.000000,4.000000,,,,0.000000,4.000000,4.000000,2.000000,4.000000,4.000000,4.000000,2.000000,4.000000,4.000000,4.000000,4.000000,4.000000,4.000000,4.000000,66.666664,,,,,,,,,,,,,,,,,,,,,,,,,,,,,,,,,,,,,,,,,,,,,,,,,,,,,,,,,,,,,,,,,,,,,,,,,,,,,,,,,,
1607646224.499346,86.000000,0.000000,4213.077148,4194.102539,4232.051270,4228.589844,4205.384766,4213.717773,4201.666504,4201.410156,4213.205078,4216.410156,4138.717773,4213.717773,4205.384766,4207.436035,3597.000000,4.000000,,,,0.000000,4.000000,4.000000,2.000000,4.000000,4.000000,4.000000,2.000000,4.000000,4.000000,4.000000,4.000000,4.000000,4.000000,4.000000,66.666664,,,,,,,,,,,,,,,,,,,,,,,,,,,,,,,,,,,,,,,,,,,,,,,,,,,,,,,,,,,,,,,,,,,,,,,,,,,,,,,,,,
1607646224.507243,87.000000,0.000000,4215.641113,4188.077148,4231.025879,4228.333496,4211.538574,4214.102539,4200.000000,4200.512695,4215.512695,4214.487305,4136.538574,4214.358887,4208.077148,4206.794922,3480.000000,4.000000,,,,0.000000,4.000000,4.000000,2.000000,4.000000,4.000000,4.000000,2.000000,4.000000,4.000000,4.000000,4.000000,4.000000,4.000000,4.000000,66.666664,,,,,,,,,,,,,,,,,,,,,,,,,,,,,,,,,,,,,,,,,,,,,,,,,,,,,,,,,,,,,,,,,,,,,,,,,,,,,,,,,,
1607646224.515039,88.000000,0.000000,4217.692383,4186.282227,4230.897461,4227.563965,4207.692383,4217.692383,4199.615234,4202.948730,4217.051270,4216.282227,4139.487305,4214.230957,4219.230957,4216.025879,3124.000000,4.000000,,,,0.000000,4.000000,4.000000,2.000000,4.000000,4.000000,4.000000,2.000000,4.000000,4.000000,4.000000,4.000000,4.000000,4.000000,4.000000,66.666664,22.000000,0.000000,0.596376,0.091553,-0.792603,0.087952,0.986343,-0.033204,-0.283207,-24.524300,-152.977798,-10.916305,,,,,,,,,,,,,,,,,,,,,,,,,,,,,,,,,,,,,,,,,,,,,,,,,,,,,,,,,,,,,,,,,,,,,,
1607646224.522836,89.000000,0.000000,4218.589844,4193.717773,4231.666504,4227.820313,4203.461426,4216.922852,4201.025879,4207.307617,4218.461426,4219.102539,4141.025879,4213.461426,4220.512695,4216.410156,2284.000000,4.000000,,,,0.000000,4.000000,4.000000,2.000000,4.000000,4.000000,4.000000,2.000000,4.000000,4.000000,4.000000,4.000000,4.000000,4.000000,4.000000,66.666664,,,,,,,,,,,,,,,,,,,,,,,,,,,,,,,,,,,,,,,,,,,,,,,,,,,,,,,,,,,,,,,,,,,,,,,,,,,,,,,,,,
1607646224.530632,90.000000,0.000000,4216.922852,4193.717773,4229.615234,4227.051270,4199.487305,4211.282227,4200.384766,4206.922852,4214.358887,4217.051270,4133.077148,4213.205078,4214.743652,4205.128418,3597.000000,4.000000,,,,0.000000,4.000000,4.000000,2.000000,4.000000,4.000000,4.000000,2.000000,4.000000,4.000000,4.000000,4.000000,4.000000,4.000000,4.000000,66.666664,,,,,,,,,,,,,0.558798,0.365269,0.832406,0.196990,0.219113,0.633829,0.595805,0.345285,0.447468,0.235866,0.123660,0.074918,0.030886,0.092575,0.053030,0.189925,0.160755,0.077706,0.157343,0.045721,0.304457,0.530131,0.148646,0.796101,0.357454,0.775836,0.454513,0.291168,0.243099,0.160583,0.018594,0.047963,0.024420,0.015963,0.034883,0.338163,0.577988,0.174681,0.095234,0.123741,1.320219,1.096774,0.434216,0.188173,0.176539,2.193241,1.252978,0.753609,0.174456,0.202828,1.194378,1.019763,0.517304,0.221406,0.148993,0.288203,0.397947,0.177101,0.060626,0.056025,1.864785,1.440908,0.821899,0.228933,0.169996,0.934621,1.123714,0.506907,0.158174,0.148147
1607646224.538429,91.000000,0.000000,4213.077148,4186.922852,4226.282227,4229.487305,4197.820313,4212.948730,4198.589844,4201.794922,4212.179688,4213.717773,4129.743652,4212.436035,4213.846191,4200.128418,3480.000000,4.000000,,,,0.000000,4.000000,4.000000,2.000000,4.000000,4.000000,4.000000,2.000000,4.000000,4.000000,4.000000,4.000000,4.000000,4.000000,4.000000,66.666664,,,,,,,,,,,,,,,,,,,,,,,,,,,,,,,,,,,,,,,,,,,,,,,,,,,,,,,,,,,,,,,,,,,,,,,,,,,,,,,,,,
1607646224.546225,92.000000,0.000000,4216.282227,4190.769043,4226.922852,4230.256348,4211.025879,4218.589844,4199.871582,4200.384766,4215.897461,4218.846191,4137.563965,4211.666504,4217.307617,4205.384766,3124.000000,4.000000,,,,0.000000,4.000000,4.000000,2.000000,4.000000,4.000000,4.000000,2.000000,4.000000,4.000000,4.000000,4.000000,4.000000,4.000000,4.000000,66.666664,23.000000,0.000000,0.596494,0.091309,-0.792542,0.087952,0.995621,-0.032227,-0.282231,-23.477531,-152.529190,-11.065843,,,,,,,,,,,,,,,,,,,,,,,,,,,,,,,,,,,,,,,,,,,,,,,,,,,,,,,,,,,,,,,,,,,,,,
1607646224.554022,93.000000,0.000000,4215.769043,4191.922852,4226.794922,4224.743652,4216.794922,4215.384766,4201.794922,4203.461426,4210.769043,4221.666504,4135.769043,4207.436035,4213.974121,4201.922852,2284.000000,4.000000,,,,0.000000,4.000000,4.000000,2.000000,4.000000,4.000000,4.000000,2.000000,4.000000,4.000000,4.000000,4.000000,4.000000,4.000000,4.000000,66.666664,,,,,,,,,,,,,,,,,,,,,,,,,,,,,,,,,,,,,,,,,,,,,,,,,,,,,,,,,,,,,,,,,,,,,,,,,,,,,,,,,,
1607646224.561818,94.000000,0.000000,4205.512695,4177.563965,4225.256348,4218.461426,4202.692383,4212.051270,4199.102539,4199.358887,4199.871582,4207.948730,4121.922852,4201.922852,4199.102539,4188.205078,3597.000000,4.000000,,,,0.000000,4.000000,4.000000,2.000000,4.000000,4.000000,4.000000,2.000000,4.000000,4.000000,4.000000,4.000000,4.000000,4.000000,4.000000,66.666664,,,,,,,,,,,,,,,,,,,,,,,,,,,,,,,,,,,,,,,,,,,,,,,,,,,,,,,,,,,,,,,,,,,,,,,,,,,,,,,,,,
1607646224.569615,95.000000,0.000000,4202.563965,4174.615234,4226.282227,4217.307617,4201.282227,4216.410156,4195.000000,4192.307617,4197.692383,4199.358887,4119.615234,4200.256348,4192.179688,4186.410156,3480.000000,4.000000,,,,0.000000,4.000000,4.000000,2.000000,4.000000,4.000000,4.000000,2.000000,4.000000,4.000000,4.000000,4.000000,4.000000,4.000000,4.000000,66.666664,,,,,,,,,,,,,,,,,,,,,,,,,,,,,,,,,,,,,,,,,,,,,,,,,,,,,,,,,,,,,,,,,,,,,,,,,,,,,,,,,,
1607646224.577411,96.000000,0.000000,4210.000000,4187.948730,4228.589844,4220.256348,4212.179688,4218.589844,4196.153809,4195.512695,4201.794922,4209.743652,4126.922852,4202.563965,4208.077148,4200.512695,3124.000000,4.000000,,,,0.000000,4.000000,4.000000,2.000000,4.000000,4.000000,4.000000,2.000000,4.000000,4.000000,4.000000,4.000000,4.000000,4.000000,4.000000,66.666664,24.000000,0.000000,0.596466,0.091431,-0.792542,0.088013,0.996597,-0.023438,-0.283696,-24.524300,-152.977798,-10.916305,,,,,,,,,,,,,,,,,,,,,,,,,,,,,,,,,,,,,,,,,,,,,,,,,,,,,,,,,,,,,,,,,,,,,,
1607646224.585308,97.000000,0.000000,4212.692383,4183.589844,4225.256348,4218.461426,4202.436035,4217.820313,4199.871582,4202.820313,4202.820313,4218.846191,4127.051270,4203.205078,4215.384766,4204.487305,2284.000000,4.000000,,,,0.000000,4.000000,4.000000,2.000000,4.000000,4.000000,4.000000,2.000000,4.000000,4.000000,4.000000,4.000000,4.000000,4.000000,4.000000,66.666664,,,,,,,,,,,,,,,,,,,,,,,,,,,,,,,,,,,,,,,,,,,,,,,,,,,,,,,,,,,,,,,,,,,,,,,,,,,,,,,,,,
1607646224.593104,98.000000,0.000000,4211.153809,4171.794922,4223.717773,4214.871582,4196.025879,4217.179688,4201.794922,4198.974121,4201.922852,4213.846191,4123.717773,4200.512695,4205.897461,4196.410156,3597.000000,4.000000,,,,0.000000,4.000000,4.000000,2.000000,4.000000,4.000000,4.000000,2.000000,4.000000,4.000000,4.000000,4.000000,4.000000,4.000000,4.000000,66.666664,,,,,,,,,,,,,,,,,,,,,,,,,,,,,,,,,,,,,,,,,,,,,,,,,,,,,,,,,,,,,,,,,,,,,,,,,,,,,,,,,,
1607646224.600900,99.000000,0.000000,4213.077148,4177.307617,4227.051270,4217.307617,4211.794922,4215.512695,4199.102539,4188.205078,4198.974121,4208.205078,4123.461426,4200.128418,4208.974121,4196.282227,3480.000000,4.000000,,,,0.000000,4.000000,4.000000,2.000000,4.000000,4.000000,4.000000,2.000000,4.000000,4.000000,4.000000,4.000000,4.000000,4.000000,4.000000,66.666664,,,,,,,,,,,,,,,,,,,,,,,,,,,,,,,,,,,,,,,,,,,,,,,,,,,,,,,,,,,,,,,,,,,,,,,,,,,,,,,,,,
1607646224.608697,100.000000,0.000000,4208.589844,4182.436035,4230.128418,4219.615234,4212.820313,4214.871582,4195.512695,4187.179688,4197.436035,4210.128418,4123.717773,4202.820313,4218.589844,4200.512695,3124.000000,4.000000,,,,0.000000,4.000000,4.000000,2.000000,4.000000,4.000000,4.000000,2.000000,4.000000,4.000000,4.000000,4.000000,4.000000,4.000000,4.000000,66.666664,25.000000,0.000000,0.596439,0.091553,-0.792542,0.088074,0.998550,-0.036622,-0.280278,-24.524300,-152.678726,-12.411689,,,,,,,,,,,,,,,,,,,,,,,,,,,,,,,,,,,,,,,,,,,,,,,,,,,,,,,,,,,,,,,,,,,,,,
1607646224.616493,101.000000,0.000000,4199.487305,4176.538574,4228.974121,4216.410156,4198.205078,4215.641113,4196.794922,4195.512695,4200.128418,4213.205078,4123.717773,4203.077148,4215.641113,4198.974121,2284.000000,4.000000,,,,0.000000,4.000000,4.000000,2.000000,4.000000,4.000000,4.000000,2.000000,4.000000,4.000000,4.000000,4.000000,4.000000,4.000000,4.000000,66.666664,,,,,,,,,,,,,,,,,,,,,,,,,,,,,,,,,,,,,,,,,,,,,,,,,,,,,,,,,,,,,,,,,,,,,,,,,,,,,,,,,,
1607646224.624289,102.000000,0.000000,4203.205078,4173.205078,4226.538574,4215.384766,4198.077148,4215.769043,4201.410156,4200.897461,4201.794922,4215.897461,4124.615234,4202.307617,4213.717773,4197.563965,3597.000000,4.000000,,,,0.000000,4.000000,4.000000,2.000000,4.000000,4.000000,4.000000,2.000000,4.000000,4.000000,4.000000,4.000000,4.000000,4.000000,4.000000,66.666664,,,,,,,,,,,,,,,,,,,,,,,,,,,,,,,,,,,,,,,,,,,,,,,,,,,,,,,,,,,,,,,,,,,,,,,,,,,,,,,,,,
1607646224.632085,103.000000,0.000000,4209.615234,4172.179688,4228.333496,4218.717773,4204.871582,4212.436035,4197.948730,4199.102539,4200.897461,4215.128418,4125.384766,4204.230957,4216.666504,4199.102539,3480.000000,4.000000,,,,0.000000,4.000000,4.000000,2.000000,4.000000,4.000000,4.000000,2.000000,4.000000,4.000000,4.000000,4.000000,4.000000,4.000000,4.000000,66.666664,,,,,,,,,,,,,,,,,,,,,,,,,,,,,,,,,,,,,,,,,,,,,,,,,,,,,,,,,,,,,,,,,,,,,,,,,,,,,,,,,,
1607646224.639882,104.000000,0.000000,4203.846191,4166.025879,4227.307617,4217.307617,4196.153809,4204.358887,4190.641113,4192.820313,4200.000000,4211.666504,4121.666504,4204.230957,4211.538574,4198.077148,3124.000000,4.000000,,,,0.000000,4.000000,4.000000,2.000000,4.000000,4.000000,4.000000,2.000000,4.000000,4.000000,4.000000,4.000000,4.000000,4.000000,4.000000,66.666664,26.000000,0.000000,0.596321,0.091614,-0.792603,0.088257,0.991226,-0.031739,-0.284672,-25.271992,-152.678726,-11.663997,,,,,,,,,,,,,,,,,,,,,,,,,,,,,,,,,,,,,,,,,,,,,,,,,,,,,,,,,,,,,,,,,,,,,,
1607646224.647678,105.000000,0.000000,4203.717773,4167.436035,4228.077148,4215.897461,4194.615234,4200.000000,4194.615234,4191.538574,4201.282227,4212.307617,4118.846191,4202.563965,4209.871582,4195.641113,2284.000000,4.000000,,,,0.000000,4.000000,4.000000,2.000000,4.000000,4.000000,4.000000,2.000000,4.000000,4.000000,4.000000,4.000000,4.000000,4.000000,4.000000,66.666664,,,,,,,,,,,,,,,,,,,,,,,,,,,,,,,,,,,,,,,,,,,,,,,,,,,,,,,,,,,,,,,,,,,,,,,,,,,,,,,,,,
1607646224.655574,106.000000,0.000000,4216.282227,4177.820313,4231.794922,4217.692383,4210.256348,4207.051270,4200.512695,4197.051270,4202.563965,4217.563965,4122.563965,4204.102539,4215.897461,4197.820313,3597.000000,4.000000,,,,0.000000,4.000000,4.000000,2.000000,4.000000,4.000000,4.000000,2.000000,4.000000,4.000000,4.000000,4.000000,4.000000,4.000000,4.000000,66.666664,,,,,,,,,,,,,0.641805,0.319545,0.853094,0.173189,0.221254,0.636325,0.531884,0.302252,0.439806,0.237560,0.159309,0.084926,0.033068,0.085387,0.054522,0.211141,0.170717,0.088327,0.143299,0.046462,0.306384,0.452803,0.151827,0.849987,0.389373,0.731997,0.349509,0.254657,0.221790,0.153083,0.024928,0.045612,0.026743,0.014527,0.038974,0.355469,0.517949,0.148402,0.086075,0.126363,1.245565,0.843351,0.358267,0.163970,0.176724,2.296646,0.924750,0.654638,0.171429,0.204312,1.202729,0.936828,0.532682,0.180874,0.137888,0.264142,0.319053,0.163229,0.050945,0.048750,2.119524,1.230820,0.791772,0.201369,0.175602,1.040782,1.054008,0.500581,0.146099,0.148013
1607646224.663370,107.000000,0.000000,4218.077148,4177.307617,4233.333496,4216.410156,4205.897461,4212.051270,4200.256348,4199.487305,4203.077148,4219.871582,4125.256348,4202.948730,4217.051270,4199.615234,3480.000000,4.000000,,,,0.000000,4.000000,4.000000,2.000000,4.000000,4.000000,4.000000,2.000000,4.000000,4.000000,4.000000,4.000000,4.000000,4.000000,4.000000,66.666664,,,,,,,,,,,,,,,,,,,,,,,,,,,,,,,,,,,,,,,,,,,,,,,,,,,,,,,,,,,,,,,,,,,,,,,,,,,,,,,,,,
1607646224.671167,108.000000,0.000000,4210.769043,4167.820313,4233.589844,4213.974121,4186.153809,4204.230957,4199.615234,4196.666504,4202.692383,4216.538574,4122.179688,4203.205078,4216.153809,4198.333496,3124.000000,4.000000,,,,0.000000,4.000000,4.000000,2.000000,4.000000,4.000000,4.000000,2.000000,4.000000,4.000000,4.000000,4.000000,4.000000,4.000000,4.000000,66.666664,27.000000,0.000000,0.596176,0.091736,-0.792664,0.088562,0.994156,-0.038575,-0.290044,-23.477531,-152.529190,-13.308919,,,,,,,,,,,,,,,,,,,,,,,,,,,,,,,,,,,,,,,,,,,,,,,,,,,,,,,,,,,,,,,,,,,,,,
1607646224.678963,109.000000,0.000000,4212.820313,4166.922852,4233.589844,4213.205078,4186.153809,4198.974121,4201.794922,4198.717773,4203.077148,4216.794922,4122.948730,4206.538574,4217.692383,4199.871582,2284.000000,4.000000,,,,0.000000,4.000000,4.000000,2.000000,4.000000,4.000000,4.000000,2.000000,4.000000,4.000000,4.000000,4.000000,4.000000,4.000000,4.000000,66.666664,,,,,,,,,,,,,,,,,,,,,,,,,,,,,,,,,,,,,,,,,,,,,,,,,,,,,,,,,,,,,,,,,,,,,,,,,,,,,,,,,,
1607646224.686759,110.000000,0.000000,4217.051270,4175.897461,4232.563965,4213.846191,4199.615234,4207.692383,4201.666504,4201.410156,4208.205078,4225.000000,4132.820313,4206.922852,4221.666504,4204.743652,3597.000000,4.000000,,,,0.000000,4.000000,4.000000,2.000000,4.000000,4.000000,4.000000,2.000000,4.000000,4.000000,4.000000,4.000000,4.000000,4.000000,4.000000,66.666664,,,,,,,,,,,,,,,,,,,,,,,,,,,,,,,,,,,,,,,,,,,,,,,,,,,,,,,,,,,,,,,,,,,,,,,,,,,,,,,,,,
1607646224.694556,111.000000,0.000000,4215.128418,4178.333496,4232.563965,4215.000000,4202.948730,4217.051270,4198.846191,4199.358887,4210.128418,4228.205078,4138.077148,4207.563965,4220.256348,4204.871582,3480.000000,4.000000,,,,0.000000,4.000000,4.000000,2.000000,4.000000,4.000000,4.000000,2.000000,4.000000,4.000000,4.000000,4.000000,4.000000,4.000000,4.000000,66.666664,,,,,,,,,,,,,,,,,,,,,,,,,,,,,,,,,,,,,,,,,,,,,,,,,,,,,,,,,,,,,,,,,,,,,,,,,,,,,,,,,,
1607646224.702352,112.000000,0.000000,4213.974121,4175.384766,4235.256348,4217.436035,4201.153809,4208.717773,4198.717773,4199.358887,4207.820313,4223.333496,4136.666504,4211.666504,4217.179688,4203.205078,3124.000000,4.000000,,,,0.000000,4.000000,4.000000,2.000000,4.000000,4.000000,4.000000,2.000000,4.000000,4.000000,4.000000,4.000000,4.000000,4.000000,4.000000,66.666664,28.000000,0.000000,0.596111,0.092041,-0.792664,0.088684,0.986343,-0.029786,-0.285649,-23.028915,-152.080566,-10.318151,,,,,,,,,,,,,,,,,,,,,,,,,,,,,,,,,,,,,,,,,,,,,,,,,,,,,,,,,,,,,,,,,,,,,,
1607646224.710148,113.000000,0.000000,4213.846191,4181.282227,4235.769043,4219.871582,4200.128418,4198.589844,4199.871582,4203.589844,4213.205078,4228.589844,4139.358887,4215.769043,4227.820313,4206.282227,2284.000000,4.000000,,,,0.000000,4.000000,4.000000,2.000000,4.000000,4.000000,4.000000,2.000000,4.000000,4.000000,4.000000,4.000000,4.000000,4.000000,4.000000,66.666664,,,,,,,,,,,,,,,,,,,,,,,,,,,,,,,,,,,,,,,,,,,,,,,,,,,,,,,,,,,,,,,,,,,,,,,,,,,,,,,,,,
1607646224.717944,114.000000,0.000000,4216.410156,4187.436035,4236.538574,4220.256348,4199.358887,4205.000000,4200.128418,4206.922852,4218.974121,4235.512695,4141.666504,4215.769043,4233.717773,4206.922852,3597.000000,4.000000,,,,0.000000,4.000000,4.000000,2.000000,4.000000,4.000000,4.000000,2.000000,4.000000,4.000000,4.000000,4.000000,4.000000,4.000000,4.000000,66.666664,,,,,,,,,,,,,,,,,,,,,,,,,,,,,,,,,,,,,,,,,,,,,,,,,,,,,,,,,,,,,,,,,,,,,,,,,,,,,,,,,,
1607646224.725841,115.000000,0.000000,4215.256348,4180.128418,4234.743652,4216.282227,4204.230957,4209.615234,4197.948730,4203.846191,4210.128418,4224.615234,4135.000000,4211.282227,4220.000000,4202.436035,3480.000000,4.000000,,,,0.000000,4.000000,4.000000,2.000000,4.000000,4.000000,4.000000,2.000000,4.000000,4.000000,4.000000,4.000000,4.000000,4.000000,4.000000,66.666664,,,,,,,,,,,,,,,,,,,,,,,,,,,,,,,,,,,,,,,,,,,,,,,,,,,,,,,,,,,,,,,,,,,,,,,,,,,,,,,,,,
1607646224.733637,116.000000,0.000000,4207.051270,4168.461426,4231.410156,4212.051270,4202.563965,4209.230957,4198.205078,4199.487305,4198.589844,4213.333496,4128.333496,4204.743652,4212.307617,4195.512695,3124.000000,4.000000,,,,0.000000,4.000000,4.000000,2.000000,4.000000,4.000000,4.000000,2.000000,4.000000,4.000000,4.000000,4.000000,4.000000,4.000000,4.000000,66.666664,29.000000,0.000000,0.596002,0.092163,-0.792725,0.088745,0.989761,-0.030274,-0.276860,-24.673838,-150.884262,-12.262150,,,,,,,,,,,,,,,,,,,,,,,,,,,,,,,,,,,,,,,,,,,,,,,,,,,,,,,,,,,,,,,,,,,,,,
1607646224.741433,117.000000,0.000000,4202.820313,4166.794922,4232.563965,4213.589844,4196.794922,4216.922852,4200.384766,4195.000000,4198.717773,4210.384766,4124.743652,4201.410156,4213.333496,4188.461426,2284.000000,4.000000,,,,0.000000,4.000000,4.000000,2.000000,4.000000,4.000000,4.000000,2.000000,4.000000,4.000000,4.000000,4.000000,4.000000,4.000000,4.000000,66.666664,,,,,,,,,,,,,,,,,,,,,,,,,,,,,,,,,,,,,,,,,,,,,,,,,,,,,,,,,,,,,,,,,,,,,,,,,,,,,,,,,,
1607646224.749229,118.000000,0.000000,4203.077148,4167.820313,4232.179688,4212.820313,4197.307617,4215.897461,4199.615234,4189.615234,4201.025879,4205.897461,4120.641113,4201.538574,4206.922852,4184.871582,3597.000000,4.000000,,,,0.000000,4.000000,4.000000,2.000000,4.000000,4.000000,4.000000,2.000000,4.000000,4.000000,4.000000,4.000000,4.000000,4.000000,4.000000,66.666664,,,,,,,,,,,,,,,,,,,,,,,,,,,,,,,,,,,,,,,,,,,,,,,,,,,,,,,,,,,,,,,,,,,,,,,,,,,,,,,,,,
1607646224.757026,119.000000,0.000000,4204.743652,4167.307617,4231.666504,4208.974121,4198.589844,4203.333496,4199.487305,4193.205078,4200.256348,4208.589844,4127.820313,4200.769043,4208.461426,4189.871582,3480.000000,4.000000,,,,0.000000,4.000000,4.000000,2.000000,4.000000,4.000000,4.000000,2.000000,4.000000,4.000000,4.000000,4.000000,4.000000,4.000000,4.000000,66.666664,,,,,,,,,,,,,,,,,,,,,,,,,,,,,,,,,,,,,,,,,,,,,,,,,,,,,,,,,,,,,,,,,,,,,,,,,,,,,,,,,,
1607646224.764822,120.000000,0.000000,4209.615234,4170.769043,4235.256348,4210.897461,4197.563965,4200.641113,4201.410156,4200.769043,4203.461426,4217.563965,4139.615234,4201.794922,4220.000000,4198.333496,3124.000000,4.000000,,,,0.000000,4.000000,4.000000,2.000000,4.000000,4.000000,4.000000,2.000000,4.000000,4.000000,4.000000,4.000000,4.000000,4.000000,4.000000,66.666664,30.000000,0.000000,0.596001,0.092224,-0.792725,0.088684,0.984390,-0.034180,-0.282231,-23.776608,-154.174103,-10.467689,,,,,,,,,,,,,,,,,,,,,,,,,,,,,,,,,,,,,,,,,,,,,,,,,,,,,,,,,,,,,,,,,,,,,,
1607646224.772618,121.000000,0.000000,4215.256348,4178.461426,4238.846191,4216.666504,4199.230957,4205.769043,4201.153809,4200.512695,4207.436035,4221.538574,4141.282227,4203.589844,4222.051270,4200.256348,2284.000000,4.000000,,,,0.000000,4.000000,4.000000,2.000000,4.000000,4.000000,4.000000,2.000000,4.000000,4.000000,4.000000,4.000000,4.000000,4.000000,4.000000,66.666664,,,,,,,,,,,,,,,,,,,,,,,,,,,,,,,,,,,,,,,,,,,,,,,,,,,,,,,,,,,,,,,,,,,,,,,,,,,,,,,,,,
1607646224.780415,122.000000,0.000000,4217.307617,4185.769043,4238.717773,4218.205078,4204.230957,4206.025879,4199.230957,4198.461426,4205.256348,4225.897461,4140.769043,4204.487305,4224.230957,4200.384766,3597.000000,4.000000,,,,0.000000,4.000000,4.000000,2.000000,4.000000,4.000000,4.000000,2.000000,4.000000,4.000000,4.000000,4.000000,4.000000,4.000000,4.000000,66.666664,,,,,,,,,,,,,0.775468,0.332556,0.863151,0.158153,0.221540,0.594668,0.480915,0.277897,0.423417,0.227441,0.196512,0.098661,0.035309,0.072459,0.053334,0.245281,0.197378,0.099213,0.120994,0.047359,0.297889,0.373182,0.156780,0.864895,0.424552,0.689892,0.329202,0.212836,0.193755,0.138982,0.033830,0.043403,0.027846,0.014017,0.042619,0.372487,0.472405,0.133811,0.072501,0.128153,1.112814,0.668647,0.319466,0.142329,0.178260,2.311327,0.654159,0.543966,0.174771,0.200043,1.105882,0.834363,0.502335,0.146635,0.129447,0.241685,0.269262,0.154768,0.048953,0.043484,2.280636,1.008972,0.722822,0.175986,0.184100,1.101214,0.936300,0.486508,0.136836,0.143198
1607646224.788311,123.000000,0.000000,4219.743652,4185.641113,4240.384766,4217.692383,4205.897461,4204.102539,4198.974121,4200.641113,4207.563965,4233.333496,4144.871582,4209.358887,4233.589844,4203.589844,3480.000000,4.000000,,,,0.000000,4.000000,4.000000,2.000000,4.000000,4.000000,4.000000,2.000000,4.000000,4.000000,4.000000,4.000000,4.000000,4.000000,4.000000,66.666664,,,,,,,,,,,,,,,,,,,,,,,,,,,,,,,,,,,,,,,,,,,,,,,,,,,,,,,,,,,,,,,,,,,,,,,,,,,,,,,,,,
1607646224.796108,124.000000,0.000000,4222.051270,4182.307617,4244.615234,4220.000000,4202.563965,4202.563965,4200.512695,4200.128418,4212.436035,4236.153809,4146.282227,4215.384766,4236.153809,4206.666504,3124.000000,4.000000,,,,0.000000,4.000000,4.000000,2.000000,4.000000,4.000000,4.000000,2.000000,4.000000,4.000000,4.000000,4.000000,4.000000,4.000000,4.000000,66.666664,31.000000,0.000000,0.595902,0.092285,-0.792786,0.088745,1.004410,-0.023438,-0.284184,-22.430761,-152.977798,-10.916305,,,,,,,,,,,,,,,,,,,,,,,,,,,,,,,,,,,,,,,,,,,,,,,,,,,,,,,,,,,,,,,,,,,,,,
1607646224.803904,125.000000,0.000000,4216.153809,4182.436035,4243.717773,4217.948730,4202.436035,4202.692383,4200.769043,4197.179688,4206.410156,4230.641113,4141.538574,4213.333496,4226.538574,4202.307617,2284.000000,4.000000,,,,0.000000,4.000000,4.000000,2.000000,4.000000,4.000000,4.000000,2.000000,4.000000,4.000000,4.000000,4.000000,4.000000,4.000000,4.000000,66.666664,,,,,,,,,,,,,,,,,,,,,,,,,,,,,,,,,,,,,,,,,,,,,,,,,,,,,,,,,,,,,,,,,,,,,,,,,,,,,,,,,,
1607646224.811701,126.000000,0.000000,4209.358887,4183.077148,4241.410156,4213.205078,4203.205078,4201.153809,4200.769043,4198.461426,4201.922852,4226.282227,4137.436035,4210.128418,4221.025879,4196.282227,3597.000000,4.000000,,,,0.000000,4.000000,4.000000,2.000000,4.000000,4.000000,4.000000,2.000000,4.000000,4.000000,4.000000,4.000000,4.000000,4.000000,4.000000,66.666664,,,,,,,,,,,,,,,,,,,,,,,,,,,,,,,,,,,,,,,,,,,,,,,,,,,,,,,,,,,,,,,,,,,,,,,,,,,,,,,,,,
1607646224.819497,127.000000,0.000000,4213.333496,4185.897461,4239.102539,4215.384766,4198.846191,4197.563965,4200.769043,4202.820313,4214.102539,4231.922852,4140.256348,4213.333496,4230.641113,4203.461426,58.000000,4.000000,,,,0.000000,4.000000,4.000000,2.000000,4.000000,4.000000,4.000000,2.000000,4.000000,4.000000,4.000000,4.000000,4.000000,4.000000,4.000000,66.666664,,,,,,,,,,,,,,,,,,,,,,,,,,,,,,,,,,,,,,,,,,,,,,,,,,,,,,,,,,,,,,,,,,,,,,,,,,,,,,,,,,
1607646224.827294,0.000000,0.000000,4217.307617,4185.256348,4241.282227,4214.230957,4192.948730,4197.307617,4199.230957,4201.922852,4219.230957,4235.897461,4145.000000,4212.820313,4238.205078,4210.128418,1233.000000,4.000000,,,,0.000000,4.000000,4.000000,2.000000,4.000000,4.000000,4.000000,2.000000,4.000000,4.000000,4.000000,4.000000,4.000000,4.000000,4.000000,66.666664,0.000000,0.000000,0.595800,0.092590,-0.792847,0.088562,0.991714,-0.038087,-0.284184,-23.477531,-152.080566,-10.318151,,,,,,,,,,,,,,,,,,,,,,,,,,,,,,,,,,,,,,,,,,,,,,,,,,,,,,,,,,,,,,,,,,,,,,
1607646224.835090,1.000000,0.000000,4207.307617,4173.461426,4241.922852,4207.051270,4188.846191,4194.230957,4198.205078,4193.205078,4205.128418,4229.230957,4141.153809,4202.692383,4231.282227,4201.922852,2331.000000,4.000000,,,,0.000000,4.000000,4.000000,2.000000,4.000000,4.000000,4.000000,2.000000,4.000000,4.000000,4.000000,4.000000,4.000000,4.000000,4.000000,66.666664,,,,,,,,,,,,,,,,,,,,,,,,,,,,,,,,,,,,,,,,,,,,,,,,,,,,,,,,,,,,,,,,,,,,,,,,,,,,,,,,,,
1607646224.842887,2.000000,0.000000,4202.179688,4167.051270,4239.615234,4208.589844,4189.358887,4186.538574,4198.974121,4191.922852,4200.512695,4230.000000,4136.922852,4203.589844,4229.358887,4197.436035,3245.000000,4.000000,,,,0.000000,4.000000,4.000000,2.000000,4.000000,4.000000,4.000000,2.000000,4.000000,4.000000,4.000000,4.000000,4.000000,4.000000,4.000000,66.666664,,,,,,,,,,,,,,,,,,,,,,,,,,,,,,,,,,,,,,,,,,,,,,,,,,,,,,,,,,,,,,,,,,,,,,,,,,,,,,,,,,
1607646224.850683,3.000000,0.000000,4214.743652,4173.077148,4237.692383,4215.641113,4194.615234,4186.410156,4199.230957,4199.358887,4205.256348,4234.743652,4140.000000,4211.666504,4236.538574,4203.974121,3511.000000,4.000000,,,,0.000000,4.000000,4.000000,2.000000,4.000000,4.000000,4.000000,2.000000,4.000000,4.000000,4.000000,4.000000,4.000000,4.000000,4.000000,66.666664,,,,,,,,,,,,,,,,,,,,,,,,,,,,,,,,,,,,,,,,,,,,,,,,,,,,,,,,,,,,,,,,,,,,,,,,,,,,,,,,,,
1607646224.858480,4.000000,0.000000,4213.846191,4174.871582,4236.538574,4214.743652,4200.641113,4193.846191,4197.948730,4195.769043,4201.666504,4225.897461,4135.128418,4206.538574,4232.948730,4203.077148,3658.000000,4.000000,,,,0.000000,4.000000,4.000000,2.000000,4.000000,4.000000,4.000000,2.000000,4.000000,4.000000,4.000000,4.000000,4.000000,4.000000,4.000000,66.666664,1.000000,0.000000,0.595809,0.092590,-0.792847,0.088501,0.988296,-0.038087,-0.288579,-22.430761,-154.174103,-10.916305,,,,,,,,,,,,,,,,,,,,,,,,,,,,,,,,,,,,,,,,,,,,,,,,,,,,,,,,,,,,,,,,,,,,,,
1607646224.866376,5.000000,0.000000,4203.205078,4171.666504,4236.794922,4214.102539,4202.436035,4201.282227,4198.461426,4190.512695,4198.461426,4221.282227,4126.025879,4204.743652,4226.538574,4197.820313,3405.000000,4.000000,,,,0.000000,4.000000,4.000000,2.000000,4.000000,4.000000,4.000000,2.000000,4.000000,4.000000,4.000000,4.000000,4.000000,4.000000,4.000000,66.666664,,,,,,,,,,,,,,,,,,,,,,,,,,,,,,,,,,,,,,,,,,,,,,,,,,,,,,,,,,,,,,,,,,,,,,,,,,,,,,,,,,
1607646224.874172,6.000000,0.000000,4210.384766,4170.512695,4236.666504,4216.153809,4194.615234,4199.743652,4199.230957,4196.538574,4202.307617,4230.512695,4125.897461,4215.000000,4229.871582,4200.512695,1625.000000,4.000000,,,,0.000000,4.000000,4.000000,2.000000,4.000000,4.000000,4.000000,2.000000,4.000000,4.000000,4.000000,4.000000,4.000000,4.000000,4.000000,66.666664,,,,,,,,,,,,,,,,,,,,,,,,,,,,,,,,,,,,,,,,,,,,,,,,,,,,,,,,,,,,,,,,,,,,,,,,,,,,,,,,,,
1607646224.881969,7.000000,0.000000,4219.230957,4174.358887,4241.025879,4215.384766,4192.051270,4188.589844,4199.102539,4199.743652,4203.461426,4231.153809,4130.256348,4215.897461,4232.820313,4204.743652,3143.000000,4.000000,,,,0.000000,4.000000,4.000000,2.000000,4.000000,4.000000,4.000000,2.000000,4.000000,4.000000,4.000000,4.000000,4.000000,4.000000,4.000000,66.666664,,,,,,,,,,,,,,,,,,,,,,,,,,,,,,,,,,,,,,,,,,,,,,,,,,,,,,,,,,,,,,,,,,,,,,,,,,,,,,,,,,
1607646224.889765,8.000000,0.000000,4214.615234,4186.794922,4242.307617,4215.641113,4200.897461,4187.563965,4200.256348,4195.512695,4199.743652,4220.128418,4131.282227,4206.538574,4226.666504,4204.615234,3470.000000,4.000000,,,,0.000000,4.000000,4.000000,2.000000,4.000000,4.000000,4.000000,2.000000,4.000000,4.000000,4.000000,4.000000,4.000000,4.000000,4.000000,66.666664,2.000000,0.000000,0.595783,0.092468,-0.792847,0.088806,1.002945,-0.031739,-0.286625,-24.374762,-152.529190,-10.318151,,,,,,,,,,,,,,,,,,,,,,,,,,,,,,,,,,,,,,,,,,,,,,,,,,,,,,,,,,,,,,,,,,,,,,
1607646224.897561,9.000000,0.000000,4211.922852,4184.615234,4236.282227,4216.153809,4199.487305,4196.794922,4197.948730,4197.307617,4200.897461,4216.922852,4131.794922,4205.641113,4219.358887,4203.846191,3639.000000,4.000000,,,,0.000000,4.000000,4.000000,2.000000,4.000000,4.000000,4.000000,2.000000,4.000000,4.000000,4.000000,4.000000,4.000000,4.000000,4.000000,66.666664,,,,,,,,,,,,,,,,,,,,,,,,,,,,,,,,,,,,,,,,,,,,,,,,,,,,,,,,,,,,,,,,,,,,,,,,,,,,,,,,,,
1607646224.905357,10.000000,0.000000,4215.512695,4169.230957,4233.717773,4215.512695,4192.179688,4199.615234,4194.230957,4202.692383,4203.205078,4221.666504,4135.000000,4207.179688,4218.461426,4208.461426,3598.000000,4.000000,,,,0.000000,4.000000,4.000000,2.000000,4.000000,4.000000,4.000000,2.000000,4.000000,4.000000,4.000000,4.000000,4.000000,4.000000,4.000000,66.666664,,,,,,,,,,,,,0.913470,0.390906,0.856827,0.153859,0.222841,0.522567,0.442255,0.265175,0.394084,0.208122,0.222178,0.111002,0.037806,0.057507,0.049733,0.276636,0.230423,0.108321,0.096835,0.049384,0.292549,0.303988,0.163584,0.841872,0.460704,0.678231,0.388846,0.177110,0.166360,0.121913,0.044430,0.041815,0.026696,0.014623,0.044747,0.377771,0.442495,0.127637,0.058740,0.127663,0.944263,0.594205,0.314795,0.125406,0.182156,2.178256,0.470097,0.438937,0.179853,0.194400,0.981277,0.713066,0.439114,0.127243,0.124788,0.224366,0.247911,0.161805,0.056369,0.040825,2.296436,0.817711,0.625983,0.160599,0.196144,1.101611,0.795814,0.473295,0.131120,0.137907
1607646224.913154,11.000000,0.000000,4213.205078,4175.384766,4240.256348,4217.948730,4200.000000,4199.487305,4196.922852,4201.282227,4204.102539,4220.641113,4138.717773,4204.743652,4218.589844,4213.333496,3480.000000,4.000000,,,,0.000000,4.000000,4.000000,2.000000,4.000000,4.000000,4.000000,2.000000,4.000000,4.000000,4.000000,4.000000,4.000000,4.000000,4.000000,66.666664,,,,,,,,,,,,,,,,,,,,,,,,,,,,,,,,,,,,,,,,,,,,,,,,,,,,,,,,,,,,,,,,,,,,,,,,,,,,,,,,,,
1607646224.920950,12.000000,0.000000,4210.641113,4189.487305,4243.589844,4220.769043,4206.410156,4203.589844,4200.512695,4199.230957,4204.230957,4218.461426,4140.128418,4205.128418,4219.615234,4208.846191,3123.000000,4.000000,,,,0.000000,4.000000,4.000000,2.000000,4.000000,4.000000,4.000000,2.000000,4.000000,4.000000,4.000000,4.000000,4.000000,4.000000,4.000000,66.666664,3.000000,0.000000,0.595892,0.092346,-0.792786,0.088745,0.991226,-0.041993,-0.288579,-22.430761,-152.977798,-11.215381,,,,,,,,,,,,,,,,,,,,,,,,,,,,,,,,,,,,,,,,,,,,,,,,,,,,,,,,,,,,,,,,,,,,,,
1607646224.928846,13.000000,0.000000,4208.974121,4182.179688,4236.153809,4219.615234,4199.743652,4207.563965,4199.487305,4199.615234,4202.051270,4216.794922,4135.128418,4203.205078,4212.307617,4202.179688,2284.000000,4.000000,,,,0.000000,4.000000,4.000000,2.000000,4.000000,4.000000,4.000000,2.000000,4.000000,4.000000,4.000000,4.000000,4.000000,4.000000,4.000000,66.666664,,,,,,,,,,,,,,,,,,,,,,,,,,,,,,,,,,,,,,,,,,,,,,,,,,,,,,,,,,,,,,,,,,,,,,,,,,,,,,,,,,
1607646224.936642,14.000000,0.000000,4205.897461,4172.563965,4234.743652,4216.025879,4201.538574,4210.384766,4198.589844,4199.102539,4200.512695,4210.384766,4130.897461,4200.641113,4201.153809,4199.358887,3598.000000,4.000000,,,,0.000000,4.000000,4.000000,2.000000,4.000000,4.000000,4.000000,2.000000,4.000000,4.000000,4.000000,4.000000,4.000000,4.000000,4.000000,66.666664,,,,,,,,,,,,,,,,,,,,,,,,,,,,,,,,,,,,,,,,,,,,,,,,,,,,,,,,,,,,,,,,,,,,,,,,,,,,,,,,,,
1607646224.944439,15.000000,0.000000,4210.512695,4170.512695,4239.230957,4216.282227,4205.128418,4213.974121,4199.871582,4199.871582,4201.025879,4207.948730,4135.384766,4202.563965,4206.025879,4201.025879,3480.000000,4.000000,,,,0.000000,4.000000,4.000000,2.000000,4.000000,4.000000,4.000000,2.000000,4.000000,4.000000,4.000000,4.000000,4.000000,4.000000,4.000000,66.666664,,,,,,,,,,,,,,,,,,,,,,,,,,,,,,,,,,,,,,,,,,,,,,,,,,,,,,,,,,,,,,,,,,,,,,,,,,,,,,,,,,
1607646224.952235,16.000000,0.000000,4214.615234,4172.179688,4237.692383,4218.077148,4198.333496,4217.051270,4199.743652,4201.922852,4203.589844,4215.000000,4140.641113,4205.128418,4216.538574,4209.615234,0.000000,4.000000,,,,0.000000,4.000000,4.000000,2.000000,4.000000,4.000000,4.000000,2.000000,4.000000,4.000000,4.000000,4.000000,4.000000,4.000000,4.000000,66.666664,4.000000,0.000000,0.595983,0.092285,-0.792725,0.088745,1.004898,-0.035157,-0.274418,-24.374762,-153.276871,-10.617228,,,,,,,,,,,,,,,,,,,,,,,,,,,,,,,,,,,,,,,,,,,,,,,,,,,,,,,,,,,,,,,,,,,,,,
1607646224.960031,17.000000,0.000000,4208.974121,4181.025879,4238.205078,4217.820313,4196.922852,4214.102539,4199.871582,4203.589844,4205.769043,4222.179688,4141.410156,4204.615234,4217.563965,4212.948730,0.000000,4.000000,,,,0.000000,4.000000,4.000000,2.000000,4.000000,4.000000,4.000000,2.000000,4.000000,4.000000,4.000000,4.000000,4.000000,4.000000,4.000000,66.666664,,,,,,,,,,,,,,,,,,,,,,,,,,,,,,,,,,,,,,,,,,,,,,,,,,,,,,,,,,,,,,,,,,,,,,,,,,,,,,,,,,
1607646224.967828,18.000000,0.000000,4201.282227,4181.666504,4240.384766,4216.410156,4203.846191,4206.410156,4200.128418,4202.179688,4203.333496,4215.128418,4137.948730,4203.333496,4211.282227,4203.846191,0.000000,4.000000,,,,0.000000,4.000000,4.000000,2.000000,4.000000,4.000000,4.000000,2.000000,4.000000,4.000000,4.000000,4.000000,4.000000,4.000000,4.000000,66.666664,,,,,,,,,,,,,,,,,,,,,,,,,,,,,,,,,,,,,,,,,,,,,,,,,,,,,,,,,,,,,,,,,,,,,,,,,,,,,,,,,,
1607646224.975624,19.000000,0.000000,4202.820313,4170.641113,4237.948730,4213.717773,4202.820313,4208.461426,4199.230957,4196.282227,4199.487305,4206.922852,4137.051270,4202.436035,4205.512695,4198.846191,0.000000,4.000000,,,,0.000000,4.000000,4.000000,2.000000,4.000000,4.000000,4.000000,2.000000,4.000000,4.000000,4.000000,4.000000,4.000000,4.000000,4.000000,66.666664,,,,,,,,,,,,,,,,,,,,,,,,,,,,,,,,,,,,,,,,,,,,,,,,,,,,,,,,,,,,,,,,,,,,,,,,,,,,,,,,,,
1607646224.983420,20.000000,0.000000,4204.615234,4169.102539,4239.102539,4213.589844,4188.717773,4211.666504,4200.256348,4189.615234,4200.000000,4212.179688,4138.717773,4202.948730,4204.358887,4202.563965,0.000000,4.000000,,,,0.000000,4.000000,4.000000,2.000000,4.000000,4.000000,4.000000,2.000000,4.000000,4.000000,4.000000,4.000000,4.000000,4.000000,4.000000,66.666664,5.000000,0.000000,0.596011,0.092163,-0.792725,0.088684,0.987320,-0.012207,-0.283696,-23.926146,-152.529190,-12.262150,,,,,,,,,,,,,,,,,,,,,,,,,,,,,,,,,,,,,,,,,,,,,,,,,,,,,,,,,,,,,,,,,,,,,,
1607646224.991216,21.000000,0.000000,4199.358887,4172.692383,4240.256348,4216.410156,4182.436035,4203.461426,4200.769043,4187.436035,4200.897461,4214.358887,4138.589844,4204.102539,4208.846191,4202.692383,0.000000,4.000000,,,,0.000000,4.000000,4.000000,2.000000,4.000000,4.000000,4.000000,2.000000,4.000000,4.000000,4.000000,4.000000,4.000000,4.000000,4.000000,66.666664,,,,,,,,,,,,,,,,,,,,,,,,,,,,,,,,,,,,,,,,,,,,,,,,,,,,,,,,,,,,,,,,,,,,,,,,,,,,,,,,,,
1607646224.999113,22.000000,0.000000,4198.974121,4171.410156,4237.179688,4215.128418,4192.307617,4200.000000,4197.692383,4188.461426,4198.205078,4210.000000,4138.333496,4204.358887,4213.461426,4200.000000,0.000000,4.000000,,,,0.000000,4.000000,4.000000,2.000000,4.000000,4.000000,4.000000,2.000000,4.000000,4.000000,4.000000,4.000000,4.000000,4.000000,4.000000,66.666664,,,,,,,,,,,,,,,,,,,,,,,,,,,,,,,,,,,,,,,,,,,,,,,,,,,,,,,,,,,,,,,,,,,,,,,,,,,,,,,,,,
1607646225.006909,23.000000,0.000000,4207.179688,4173.461426,4233.974121,4210.256348,4198.077148,4204.487305,4196.410156,4186.794922,4196.025879,4211.282227,4139.871582,4202.820313,4212.820313,4200.000000,0.000000,4.000000,,,,0.000000,4.000000,4.000000,2.000000,4.000000,4.000000,4.000000,2.000000,4.000000,4.000000,4.000000,4.000000,4.000000,4.000000,4.000000,66.666664,,,,,,,,,,,,,,,,,,,,,,,,,,,,,,,,,,,,,,,,,,,,,,,,,,,,,,,,,,,,,,,,,,,,,,,,,,,,,,,,,,
1607646225.014705,24.000000,0.000000,4214.102539,4175.128418,4233.717773,4212.307617,4198.333496,4202.820313,4199.871582,4190.641113,4199.615234,4215.641113,4141.025879,4202.051270,4209.743652,4200.897461,0.000000,4.000000,,,,0.000000,4.000000,4.000000,2.000000,4.000000,4.000000,4.000000,2.000000,4.000000,4.000000,4.000000,4.000000,4.000000,4.000000,4.000000,66.666664,6.000000,0.000000,0.595920,0.092224,-0.792786,0.088684,1.008804,-0.041505,-0.285649,-24.374762,-152.529190,-10.617228,,,,,,,,,,,,,,,,,,,,,,,,,,,,,,,,,,,,,,,,,,,,,,,,,,,,,,,,,,,,,,,,,,,,,,
1607646225.022502,25.000000,0.000000,4211.794922,4170.641113,4234.358887,4216.922852,4201.666504,4201.538574,4198.974121,4198.846191,4202.051270,4214.743652,4140.641113,4205.128418,4209.358887,4202.820313,0.000000,4.000000,,,,0.000000,4.000000,4.000000,2.000000,4.000000,4.000000,4.000000,2.000000,4.000000,4.000000,4.000000,4.000000,4.000000,4.000000,4.000000,66.666664,,,,,,,,,,,,,,,,,,,,,,,,,,,,,,,,,,,,,,,,,,,,,,,,,,,,,,,,,,,,,,,,,,,,,,,,,,,,,,,,,,
1607646225.030298,26.000000,0.000000,4202.948730,4170.897461,4237.179688,4215.769043,4197.307617,4205.256348,4193.077148,4199.358887,4199.358887,4215.384766,4138.846191,4204.230957,4214.358887,4203.589844,0.000000,4.000000,,,,0.000000,4.000000,4.000000,2.000000,4.000000,4.000000,4.000000,2.000000,4.000000,4.000000,4.000000,4.000000,4.000000,4.000000,4.000000,66.666664,,,,,,,,,,,,,1.023764,0.468212,0.825118,0.157249,0.225431,0.446473,0.417793,0.260728,0.354817,0.186720,0.228304,0.117775,0.040358,0.044167,0.044731,0.299684,0.259152,0.114140,0.076865,0.052732,0.300617,0.251086,0.173303,0.791668,0.493669,0.705684,0.484097,0.154295,0.147209,0.107125,0.054839,0.040852,0.023988,0.016258,0.045073,0.369872,0.420207,0.126229,0.049987,0.124303,0.791931,0.596292,0.335851,0.114777,0.186686,1.944555,0.375698,0.354921,0.185275,0.191108,0.823563,0.587957,0.373970,0.126642,0.124493,0.219484,0.251154,0.187709,0.072627,0.040698,2.188199,0.685029,0.527306,0.161395,0.211740,1.046850,0.668174,0.472517,0.129231,0.136863
1607646225.038094,27.000000,0.000000,4200.641113,4175.000000,4237.948730,4214.358887,4186.922852,4205.000000,4195.384766,4198.205078,4205.897461,4224.102539,4139.102539,4203.333496,4221.666504,4209.102539,0.000000,4.000000,,,,0.000000,4.000000,4.000000,2.000000,4.000000,4.000000,4.000000,2.000000,4.000000,4.000000,4.000000,4.000000,4.000000,4.000000,4.000000,66.666664,,,,,,,,,,,,,,,,,,,,,,,,,,,,,,,,,,,,,,,,,,,,,,,,,,,,,,,,,,,,,,,,,,,,,,,,,,,,,,,,,,
1607646225.045890,28.000000,0.000000,4209.230957,4173.717773,4236.794922,4215.769043,4186.538574,4202.820313,4202.436035,4202.563965,4215.384766,4229.743652,4142.948730,4211.025879,4225.641113,4215.897461,0.000000,4.000000,,,,0.000000,4.000000,4.000000,2.000000,4.000000,4.000000,4.000000,2.000000,4.000000,4.000000,4.000000,4.000000,4.000000,4.000000,4.000000,66.666664,7.000000,0.000000,0.596020,0.092102,-0.792725,0.088684,0.986831,-0.031739,-0.287114,-23.776608,-153.725494,-10.467689,,,,,,,,,,,,,,,,,,,,,,,,,,,,,,,,,,,,,,,,,,,,,,,,,,,,,,,,,,,,,,,,,,,,,,
1607646225.053786,29.000000,0.000000,4211.538574,4170.256348,4240.256348,4217.307617,4192.179688,4200.128418,4199.358887,4202.692383,4209.615234,4225.128418,4141.153809,4212.051270,4223.461426,4213.333496,0.000000,4.000000,,,,0.000000,4.000000,4.000000,2.000000,4.000000,4.000000,4.000000,2.000000,4.000000,4.000000,4.000000,4.000000,4.000000,4.000000,4.000000,66.666664,,,,,,,,,,,,,,,,,,,,,,,,,,,,,,,,,,,,,,,,,,,,,,,,,,,,,,,,,,,,,,,,,,,,,,,,,,,,,,,,,,
1607646225.061582,30.000000,0.000000,4202.179688,4169.871582,4240.512695,4214.871582,4191.410156,4199.487305,4193.461426,4197.179688,4199.487305,4215.641113,4136.282227,4203.974121,4215.897461,4205.128418,0.000000,4.000000,,,,0.000000,4.000000,4.000000,2.000000,4.000000,4.000000,4.000000,2.000000,4.000000,4.000000,4.000000,4.000000,4.000000,4.000000,4.000000,66.666664,,,,,,,,,,,,,,,,,,,,,,,,,,,,,,,,,,,,,,,,,,,,,,,,,,,,,,,,,,,,,,,,,,,,,,,,,,,,,,,,,,
1607646225.069479,31.000000,0.000000,4198.974121,4168.077148,4236.410156,4207.179688,4185.897461,4201.666504,4196.666504,4197.692383,4201.025879,4212.436035,4138.717773,4202.051270,4212.948730,4201.666504,0.000000,4.000000,,,,0.000000,4.000000,4.000000,2.000000,4.000000,4.000000,4.000000,2.000000,4.000000,4.000000,4.000000,4.000000,4.000000,4.000000,4.000000,66.666664,,,,,,,,,,,,,,,,,,,,,,,,,,,,,,,,,,,,,,,,,,,,,,,,,,,,,,,,,,,,,,,,,,,,,,,,,,,,,,,,,,
1607646225.077275,32.000000,0.000000,4201.282227,4165.512695,4238.461426,4204.102539,4184.358887,4201.794922,4200.128418,4196.922852,4202.307617,4211.538574,4136.794922,4203.589844,4214.230957,4200.384766,0.000000,4.000000,,,,0.000000,4.000000,4.000000,2.000000,4.000000,4.000000,4.000000,2.000000,4.000000,4.000000,4.000000,4.000000,4.000000,4.000000,4.000000,66.666664,8.000000,0.000000,0.596048,0.091980,-0.792725,0.088623,0.988785,-0.039551,-0.273930,-24.972916,-152.678726,-11.215381,,,,,,,,,,,,,,,,,,,,,,,,,,,,,,,,,,,,,,,,,,,,,,,,,,,,,,,,,,,,,,,,,,,,,,
1607646225.085071,33.000000,0.000000,4200.641113,4167.948730,4241.282227,4208.717773,4193.205078,4201.922852,4198.717773,4192.179688,4197.948730,4208.461426,4128.333496,4199.487305,4211.410156,4196.538574,0.000000,4.000000,,,,0.000000,4.000000,4.000000,2.000000,4.000000,4.000000,4.000000,2.000000,4.000000,4.000000,4.000000,4.000000,4.000000,4.000000,4.000000,66.666664,,,,,,,,,,,,,,,,,,,,,,,,,,,,,,,,,,,,,,,,,,,,,,,,,,,,,,,,,,,,,,,,,,,,,,,,,,,,,,,,,,
1607646225.092867,34.000000,0.000000,4204.230957,4172.051270,4239.615234,4214.487305,4202.307617,4203.205078,4198.717773,4196.025879,4200.000000,4212.563965,4129.871582,4199.743652,4210.384766,4196.538574,0.000000,4.000000,,,,0.000000,4.000000,4.000000,2.000000,4.000000,4.000000,4.000000,2.000000,4.000000,4.000000,4.000000,4.000000,4.000000,4.000000,4.000000,66.666664,,,,,,,,,,,,,,,,,,,,,,,,,,,,,,,,,,,,,,,,,,,,,,,,,,,,,,,,,,,,,,,,,,,,,,,,,,,,,,,,,,
1607646225.100664,35.000000,0.000000,4212.179688,4173.589844,4238.333496,4217.179688,4198.846191,4201.025879,4200.512695,4203.205078,4204.487305,4219.487305,4138.589844,4204.743652,4215.641113,4202.307617,0.000000,4.000000,,,,0.000000,4.000000,4.000000,2.000000,4.000000,4.000000,4.000000,2.000000,4.000000,4.000000,4.000000,4.000000,4.000000,4.000000,4.000000,66.666664,,,,,,,,,,,,,,,,,,,,,,,,,,,,,,,,,,,,,,,,,,,,,,,,,,,,,,,,,,,,,,,,,,,,,,,,,,,,,,,,,,
1607646225.108460,36.000000,0.000000,4215.897461,4172.179688,4238.717773,4215.897461,4189.102539,4198.333496,4200.769043,4202.948730,4204.230957,4220.641113,4138.717773,4203.846191,4218.589844,4204.102539,0.000000,4.000000,,,,0.000000,4.000000,4.000000,2.000000,4.000000,4.000000,4.000000,2.000000,4.000000,4.000000,4.000000,4.000000,4.000000,4.000000,4.000000,66.666664,9.000000,0.000000,0.596139,0.091919,-0.792664,0.088623,0.994644,-0.039063,-0.275883,-25.271992,-152.977798,-10.467689,,,,,,,,,,,,,,,,,,,,,,,,,,,,,,,,,,,,,,,,,,,,,,,,,,,,,,,,,,,,,,,,,,,,,,
1607646225.116256,37.000000,0.000000,4213.589844,4170.000000,4236.410156,4212.948730,4188.461426,4201.410156,4200.897461,4198.717773,4200.512695,4216.538574,4132.051270,4201.025879,4212.948730,4197.051270,0.000000,4.000000,,,,0.000000,4.000000,4.000000,2.000000,4.000000,4.000000,4.000000,2.000000,4.000000,4.000000,4.000000,4.000000,4.000000,4.000000,4.000000,66.666664,,,,,,,,,,,,,,,,,,,,,,,,,,,,,,,,,,,,,,,,,,,,,,,,,,,,,,,,,,,,,,,,,,,,,,,,,,,,,,,,,,
1607646225.124053,38.000000,0.000000,4209.743652,4173.717773,4235.000000,4212.820313,4191.410156,4203.717773,4201.538574,4200.000000,4198.974121,4212.436035,4125.641113,4200.769043,4207.692383,4194.102539,0.000000,4.000000,,,,0.000000,4.000000,4.000000,2.000000,4.000000,4.000000,4.000000,2.000000,4.000000,4.000000,4.000000,4.000000,4.000000,4.000000,4.000000,66.666664,,,,,,,,,,,,,,,,,,,,,,,,,,,,,,,,,,,,,,,,,,,,,,,,,,,,,,,,,,,,,,,,,,,,,,,,,,,,,,,,,,
1607646225.131849,39.000000,0.000000,4208.333496,4175.256348,4239.230957,4215.128418,4190.256348,4199.358887,4201.282227,4202.051270,4201.282227,4212.948730,4125.641113,4202.820313,4208.974121,4195.128418,0.000000,4.000000,,,,0.000000,4.000000,4.000000,2.000000,4.000000,4.000000,4.000000,2.000000,4.000000,4.000000,4.000000,4.000000,4.000000,4.000000,4.000000,66.666664,,,,,,,,,,,,,,,,,,,,,,,,,,,,,,,,,,,,,,,,,,,,,,,,,,,,,,,,,,,,,,,,,,,,,,,,,,,,,,,,,,
1607646225.139745,40.000000,0.000000,4209.743652,4173.461426,4240.641113,4214.615234,4193.717773,4196.922852,4201.794922,4200.512695,4200.641113,4213.974121,4132.820313,4203.205078,4209.358887,4193.589844,0.000000,4.000000,,,,0.000000,4.000000,4.000000,2.000000,4.000000,4.000000,4.000000,2.000000,4.000000,4.000000,4.000000,4.000000,4.000000,4.000000,4.000000,66.666664,10.000000,0.000000,0.596120,0.091980,-0.792664,0.088684,0.989761,-0.029297,-0.282231,-23.776608,-151.931030,-10.019073,,,,,,,,,,,,,,,,,,,,,,,,,,,,,,,,,,,,,,,,,,,,,,,,,,,,,,,,,,,,,,,,,,,,,,
1607646225.147541,41.000000,0.000000,4215.512695,4178.461426,4239.102539,4213.846191,4198.461426,4199.358887,4203.077148,4200.000000,4200.512695,4212.051270,4137.563965,4203.461426,4209.102539,4192.179688,0.000000,4.000000,,,,0.000000,4.000000,4.000000,2.000000,4.000000,4.000000,4.000000,2.000000,4.000000,4.000000,4.000000,4.000000,4.000000,4.000000,4.000000,66.666664,,,,,,,,,,,,,,,,,,,,,,,,,,,,,,,,,,,,,,,,,,,,,,,,,,,,,,,,,,,,,,,,,,,,,,,,,,,,,,,,,,
1607646225.155338,42.000000,0.000000,4215.769043,4179.871582,4238.974121,4214.615234,4194.358887,4197.563965,4199.743652,4200.641113,4201.153809,4205.256348,4134.358887,4202.692383,4209.102539,4189.102539,0.000000,4.000000,,,,0.000000,4.000000,4.000000,2.000000,4.000000,4.000000,4.000000,2.000000,4.000000,4.000000,4.000000,4.000000,4.000000,4.000000,4.000000,66.666664,,,,,,,,,,,,,1.067764,0.546240,0.762712,0.162501,0.227074,0.390261,0.421411,0.263609,0.314464,0.172133,0.227536,0.118694,0.043166,0.035048,0.039811,0.304457,0.277802,0.118032,0.064261,0.056660,0.324233,0.215196,0.189050,0.728553,0.516871,0.756811,0.556429,0.145921,0.141546,0.099346,0.062429,0.039792,0.021609,0.018499,0.044007,0.355383,0.396638,0.127228,0.050180,0.118683,0.683420,0.630610,0.366647,0.110103,0.188219,1.643728,0.361540,0.302568,0.192281,0.191184,0.685397,0.488473,0.336596,0.141211,0.127718,0.227033,0.278213,0.226533,0.093612,0.042738,1.979679,0.619895,0.452568,0.179706,0.229179,0.950699,0.588244,0.487949,0.131024,0.142148
1607646225.163134,43.000000,0.000000,4204.615234,4171.410156,4238.333496,4214.487305,4186.794922,4186.153809,4195.128418,4198.717773,4197.436035,4199.102539,4132.051270,4199.615234,4205.384766,4185.384766,0.000000,4.000000,,,,0.000000,4.000000,4.000000,2.000000,4.000000,4.000000,4.000000,2.000000,4.000000,4.000000,4.000000,4.000000,4.000000,4.000000,4.000000,66.666664,,,,,,,,,,,,,,,,,,,,,,,,,,,,,,,,,,,,,,,,,,,,,,,,,,,,,,,,,,,,,,,,,,,,,,,,,,,,,,,,,,
1607646225.170930,44.000000,0.000000,4198.077148,4169.871582,4237.820313,4214.487305,4183.846191,4181.410156,4196.025879,4198.077148,4195.512695,4207.563965,4136.538574,4200.769043,4203.589844,4188.974121,0.000000,4.000000,,,,0.000000,4.000000,4.000000,2.000000,4.000000,4.000000,4.000000,2.000000,4.000000,4.000000,4.000000,4.000000,4.000000,4.000000,4.000000,66.666664,11.000000,0.000000,0.596139,0.091858,-0.792664,0.088684,0.978042,-0.021485,-0.276371,-24.673838,-152.080566,-11.364920,,,,,,,,,,,,,,,,,,,,,,,,,,,,,,,,,,,,,,,,,,,,,,,,,,,,,,,,,,,,,,,,,,,,,,
1607646225.178726,45.000000,0.000000,4206.922852,4172.436035,4237.436035,4214.230957,4187.051270,4191.922852,4199.871582,4202.051270,4199.871582,4217.307617,4139.102539,4203.846191,4204.743652,4193.846191,0.000000,4.000000,,,,0.000000,4.000000,4.000000,2.000000,4.000000,4.000000,4.000000,2.000000,4.000000,4.000000,4.000000,4.000000,4.000000,4.000000,4.000000,66.666664,,,,,,,,,,,,,,,,,,,,,,,,,,,,,,,,,,,,,,,,,,,,,,,,,,,,,,,,,,,,,,,,,,,,,,,,,,,,,,,,,,
1607646225.186523,46.000000,0.000000,4213.589844,4173.717773,4236.282227,4214.230957,4192.820313,4196.025879,4197.948730,4201.666504,4200.769043,4210.256348,4133.974121,4202.307617,4200.769043,4190.256348,0.000000,4.000000,,,,0.000000,4.000000,4.000000,2.000000,4.000000,4.000000,4.000000,2.000000,4.000000,4.000000,4.000000,4.000000,4.000000,4.000000,4.000000,66.666664,,,,,,,,,,,,,,,,,,,,,,,,,,,,,,,,,,,,,,,,,,,,,,,,,,,,,,,,,,,,,,,,,,,,,,,,,,,,,,,,,,
1607646225.194319,47.000000,0.000000,4215.641113,4183.205078,4238.461426,4214.615234,4192.563965,4192.051270,4195.641113,4199.615234,4199.487305,4204.102539,4134.230957,4200.000000,4205.512695,4187.307617,0.000000,4.000000,,,,0.000000,4.000000,4.000000,2.000000,4.000000,4.000000,4.000000,2.000000,4.000000,4.000000,4.000000,4.000000,4.000000,4.000000,4.000000,66.666664,,,,,,,,,,,,,,,,,,,,,,,,,,,,,,,,,,,,,,,,,,,,,,,,,,,,,,,,,,,,,,,,,,,,,,,,,,,,,,,,,,
1607646225.202115,48.000000,0.000000,4215.256348,4186.153809,4239.487305,4214.102539,4188.205078,4193.205078,4198.974121,4201.282227,4202.307617,4210.897461,4138.461426,4201.282227,4218.077148,4188.461426,0.000000,4.000000,,,,0.000000,4.000000,4.000000,2.000000,4.000000,4.000000,4.000000,2.000000,4.000000,4.000000,4.000000,4.000000,4.000000,4.000000,4.000000,66.666664,12.000000,0.000000,0.596267,0.091553,-0.792603,0.088684,0.990738,-0.035157,-0.275883,-23.926146,-152.529190,-11.813535,,,,,,,,,,,,,,,,,,,,,,,,,,,,,,,,,,,,,,,,,,,,,,,,,,,,,,,,,,,,,,,,,,,,,,
1607646225.210012,49.000000,0.000000,4207.051270,4174.358887,4236.282227,4213.846191,4186.538574,4191.410156,4200.000000,4201.025879,4201.153809,4215.128418,4138.077148,4204.615234,4213.077148,4191.025879,0.000000,4.000000,,,,0.000000,4.000000,4.000000,2.000000,4.000000,4.000000,4.000000,2.000000,4.000000,4.000000,4.000000,4.000000,4.000000,4.000000,4.000000,66.666664,,,,,,,,,,,,,,,,,,,,,,,,,,,,,,,,,,,,,,,,,,,,,,,,,,,,,,,,,,,,,,,,,,,,,,,,,,,,,,,,,,
1607646225.217808,50.000000,0.000000,4205.512695,4171.538574,4237.179688,4215.769043,4184.871582,4184.230957,4197.563965,4198.846191,4198.846191,4211.153809,4138.205078,4206.153809,4202.051270,4196.025879,0.000000,4.000000,,,,0.000000,4.000000,4.000000,2.000000,4.000000,4.000000,4.000000,2.000000,4.000000,4.000000,4.000000,4.000000,4.000000,4.000000,4.000000,66.666664,,,,,,,,,,,,,,,,,,,,,,,,,,,,,,,,,,,,,,,,,,,,,,,,,,,,,,,,,,,,,,,,,,,,,,,,,,,,,,,,,,
1607646225.225605,51.000000,0.000000,4214.743652,4179.358887,4239.871582,4218.077148,4188.461426,4184.102539,4197.820313,4198.333496,4200.769043,4207.563965,4139.615234,4204.358887,4208.974121,4200.000000,0.000000,4.000000,,,,0.000000,4.000000,4.000000,2.000000,4.000000,4.000000,4.000000,2.000000,4.000000,4.000000,4.000000,4.000000,4.000000,4.000000,4.000000,66.666664,,,,,,,,,,,,,,,,,,,,,,,,,,,,,,,,,,,,,,,,,,,,,,,,,,,,,,,,,,,,,,,,,,,,,,,,,,,,,,,,,,
1607646225.233401,52.000000,0.000000,4218.846191,4185.256348,4238.333496,4216.153809,4195.128418,4187.051270,4200.000000,4198.205078,4196.666504,4204.487305,4137.179688,4204.102539,4217.820313,4201.282227,0.000000,4.000000,,,,0.000000,4.000000,4.000000,2.000000,4.000000,4.000000,4.000000,2.000000,4.000000,4.000000,4.000000,4.000000,4.000000,4.000000,4.000000,66.666664,13.000000,0.000000,0.596249,0.091492,-0.792603,0.088867,0.990250,-0.038575,-0.281254,-24.673838,-152.080566,-9.570458,,,,,,,,,,,,,,,,,,,,,,,,,,,,,,,,,,,,,,,,,,,,,,,,,,,,,,,,,,,,,,,,,,,,,,
1607646225.241198,53.000000,0.000000,4214.230957,4186.666504,4238.205078,4213.589844,4187.179688,4184.743652,4198.205078,4195.384766,4187.948730,4200.769043,4136.025879,4206.666504,4212.051270,4198.205078,0.000000,4.000000,,,,0.000000,4.000000,4.000000,2.000000,4.000000,4.000000,4.000000,2.000000,4.000000,4.000000,4.000000,4.000000,4.000000,4.000000,4.000000,66.666664,,,,,,,,,,,,,,,,,,,,,,,,,,,,,,,,,,,,,,,,,,,,,,,,,,,,,,,,,,,,,,,,,,,,,,,,,,,,,,,,,,
1607646225.248994,54.000000,0.000000,4212.051270,4181.794922,4242.307617,4216.666504,4180.256348,4185.512695,4196.922852,4191.282227,4186.794922,4200.128418,4138.589844,4205.000000,4206.025879,4196.153809,0.000000,4.000000,,,,0.000000,4.000000,4.000000,2.000000,4.000000,4.000000,4.000000,2.000000,4.000000,4.000000,4.000000,4.000000,4.000000,4.000000,4.000000,66.666664,,,,,,,,,,,,,,,,,,,,,,,,,,,,,,,,,,,,,,,,,,,,,,,,,,,,,,,,,,,,,,,,,,,,,,,,,,,,,,,,,,
1607646225.256791,55.000000,0.000000,4216.922852,4178.077148,4242.692383,4220.512695,4193.205078,4188.333496,4198.461426,4189.487305,4189.871582,4202.307617,4136.410156,4202.692383,4207.051270,4198.333496,0.000000,4.000000,,,,0.000000,4.000000,4.000000,2.000000,4.000000,4.000000,4.000000,2.000000,4.000000,4.000000,4.000000,4.000000,4.000000,4.000000,4.000000,66.666664,,,,,,,,,,,,,,,,,,,,,,,,,,,,,,,,,,,,,,,,,,,,,,,,,,,,,,,,,,,,,,,,,,,,,,,,,,,,,,,,,,
1607646225.264587,56.000000,0.000000,4216.153809,4180.769043,4242.179688,4217.948730,4194.615234,4187.179688,4198.461426,4188.846191,4188.205078,4202.692383,4130.769043,4204.615234,4205.128418,4195.512695,0.000000,4.000000,,,,0.000000,4.000000,4.000000,2.000000,4.000000,4.000000,4.000000,2.000000,4.000000,4.000000,4.000000,4.000000,4.000000,4.000000,4.000000,66.666664,14.000000,0.000000,0.596387,0.091064,-0.792542,0.088928,0.983413,-0.035157,-0.280766,-24.075686,-153.725494,-12.710765,,,,,,,,,,,,,,,,,,,,,,,,,,,,,,,,,,,,,,,,,,,,,,,,,,,,,,,,,,,,,,,,,,,,,,
1607646225.272384,57.000000,0.000000,4209.230957,4183.974121,4242.307617,4215.384766,4188.974121,4184.615234,4197.051270,4186.794922,4183.205078,4199.487305,4129.358887,4202.820313,4200.641113,4187.692383,0.000000,4.000000,,,,0.000000,4.000000,4.000000,2.000000,4.000000,4.000000,4.000000,2.000000,4.000000,4.000000,4.000000,4.000000,4.000000,4.000000,4.000000,66.666664,,,,,,,,,,,,,,,,,,,,,,,,,,,,,,,,,,,,,,,,,,,,,,,,,,,,,,,,,,,,,,,,,,,,,,,,,,,,,,,,,,
1607646225.280181,58.000000,0.000000,4202.051270,4185.128418,4241.153809,4216.282227,4195.256348,4183.846191,4196.410156,4184.230957,4179.743652,4194.615234,4127.179688,4197.692383,4197.692383,4183.974121,0.000000,4.000000,,,,0.000000,4.000000,4.000000,2.000000,4.000000,4.000000,4.000000,2.000000,4.000000,4.000000,4.000000,4.000000,4.000000,4.000000,4.000000,66.666664,,,,,,,,,,,,,1.030587,0.610234,0.668832,0.164634,0.224865,0.362822,0.461778,0.269210,0.280484,0.170345,0.209072,0.116306,0.045427,0.030875,0.036191,0.286576,0.284637,0.123473,0.057960,0.059843,0.353024,0.191543,0.213984,0.663902,0.521791,0.820002,0.571394,0.149481,0.149894,0.100247,0.065003,0.037905,0.021042,0.020677,0.042293,0.344424,0.369842,0.131003,0.059872,0.112138,0.622960,0.655037,0.388976,0.109525,0.183644,1.356123,0.410542,0.287090,0.200708,0.193067,0.584853,0.440652,0.341403,0.160754,0.131691,0.244200,0.325810,0.265483,0.112788,0.046304,1.733630,0.609239,0.415754,0.211292,0.244754,0.829663,0.570764,0.512889,0.134888,0.151392
1607646225.288077,59.000000,0.000000,4201.025879,4185.897461,4239.230957,4215.000000,4195.256348,4186.410156,4198.333496,4183.205078,4180.897461,4194.743652,4127.307617,4199.102539,4199.615234,4186.282227,0.000000,4.000000,,,,0.000000,4.000000,4.000000,2.000000,4.000000,4.000000,4.000000,2.000000,4.000000,4.000000,4.000000,4.000000,4.000000,4.000000,4.000000,66.666664,,,,,,,,,,,,,,,,,,,,,,,,,,,,,,,,,,,,,,,,,,,,,,,,,,,,,,,,,,,,,,,,,,,,,,,,,,,,,,,,,,
1607646225.295873,60.000000,0.000000,4207.051270,4184.615234,4239.743652,4215.384766,4189.743652,4187.692383,4202.179688,4185.897461,4185.384766,4198.717773,4132.948730,4202.436035,4205.256348,4191.538574,0.000000,4.000000,,,,0.000000,4.000000,4.000000,2.000000,4.000000,4.000000,4.000000,2.000000,4.000000,4.000000,4.000000,4.000000,4.000000,4.000000,4.000000,66.666664,15.000000,0.000000,0.596441,0.090881,-0.792480,0.089294,1.000992,-0.041505,-0.278325,-23.028915,-152.529190,-11.065843,,,,,,,,,,,,,,,,,,,,,,,,,,,,,,,,,,,,,,,,,,,,,,,,,,,,,,,,,,,,,,,,,,,,,,
1607646225.303669,61.000000,0.000000,4214.358887,4184.743652,4244.743652,4221.153809,4196.153809,4189.743652,4202.948730,4193.333496,4192.563965,4202.692383,4139.102539,4203.333496,4207.436035,4197.820313,0.000000,4.000000,,,,0.000000,4.000000,4.000000,2.000000,4.000000,4.000000,4.000000,2.000000,4.000000,4.000000,4.000000,4.000000,4.000000,4.000000,4.000000,66.666664,,,,,,,,,,,,,,,,,,,,,,,,,,,,,,,,,,,,,,,,,,,,,,,,,,,,,,,,,,,,,,,,,,,,,,,,,,,,,,,,,,
1607646225.311466,62.000000,0.000000,4216.538574,4188.205078,4248.205078,4222.563965,4200.641113,4192.948730,4200.128418,4199.871582,4199.615234,4207.179688,4139.487305,4208.717773,4207.179688,4201.153809,0.000000,4.000000,,,,0.000000,4.000000,4.000000,2.000000,4.000000,4.000000,4.000000,2.000000,4.000000,4.000000,4.000000,4.000000,4.000000,4.000000,4.000000,66.666664,,,,,,,,,,,,,,,,,,,,,,,,,,,,,,,,,,,,,,,,,,,,,,,,,,,,,,,,,,,,,,,,,,,,,,,,,,,,,,,,,,
1607646225.319262,63.000000,0.000000,4213.717773,4187.563965,4245.256348,4215.769043,4197.436035,4191.538574,4199.230957,4197.948730,4199.487305,4211.794922,4136.025879,4210.897461,4208.846191,4199.358887,0.000000,4.000000,,,,0.000000,4.000000,4.000000,2.000000,4.000000,4.000000,4.000000,2.000000,4.000000,4.000000,4.000000,4.000000,4.000000,4.000000,4.000000,66.666664,,,,,,,,,,,,,,,,,,,,,,,,,,,,,,,,,,,,,,,,,,,,,,,,,,,,,,,,,,,,,,,,,,,,,,,,,,,,,,,,,,
1607646225.327058,64.000000,0.000000,4216.153809,4186.025879,4241.538574,4216.282227,4203.589844,4185.384766,4200.000000,4196.282227,4198.717773,4214.487305,4138.077148,4209.230957,4214.358887,4198.717773,1228.000000,4.000000,,,,0.000000,4.000000,4.000000,2.000000,4.000000,4.000000,4.000000,2.000000,4.000000,4.000000,4.000000,4.000000,4.000000,4.000000,4.000000,66.666664,16.000000,0.000000,0.596432,0.090759,-0.792480,0.089478,1.001480,-0.027832,-0.283696,-23.477531,-152.529190,-10.318151,,,,,,,,,,,,,,,,,,,,,,,,,,,,,,,,,,,,,,,,,,,,,,,,,,,,,,,,,,,,,,,,,,,,,,
1607646225.334854,65.000000,0.000000,4214.871582,4187.563965,4245.512695,4223.205078,4201.025879,4183.077148,4196.794922,4200.128418,4203.333496,4216.153809,4140.897461,4211.410156,4217.692383,4200.641113,2316.000000,4.000000,,,,0.000000,4.000000,4.000000,2.000000,4.000000,4.000000,4.000000,2.000000,4.000000,4.000000,4.000000,4.000000,4.000000,4.000000,4.000000,66.666664,,,,,,,,,,,,,,,,,,,,,,,,,,,,,,,,,,,,,,,,,,,,,,,,,,,,,,,,,,,,,,,,,,,,,,,,,,,,,,,,,,
1607646225.342651,66.000000,0.000000,4204.871582,4187.948730,4250.000000,4223.461426,4190.256348,4185.897461,4197.692383,4201.282227,4204.102539,4217.563965,4138.333496,4216.282227,4215.512695,4201.794922,3245.000000,4.000000,,,,0.000000,4.000000,4.000000,2.000000,4.000000,4.000000,4.000000,2.000000,4.000000,4.000000,4.000000,4.000000,4.000000,4.000000,4.000000,66.666664,,,,,,,,,,,,,,,,,,,,,,,,,,,,,,,,,,,,,,,,,,,,,,,,,,,,,,,,,,,,,,,,,,,,,,,,,,,,,,,,,,
1607646225.350447,67.000000,0.000000,4199.358887,4187.179688,4248.846191,4218.717773,4196.922852,4186.538574,4200.256348,4198.333496,4202.051270,4217.692383,4138.846191,4214.743652,4214.102539,4201.922852,3512.000000,4.000000,,,,0.000000,4.000000,4.000000,2.000000,4.000000,4.000000,4.000000,2.000000,4.000000,4.000000,4.000000,4.000000,4.000000,4.000000,4.000000,66.666664,,,,,,,,,,,,,,,,,,,,,,,,,,,,,,,,,,,,,,,,,,,,,,,,,,,,,,,,,,,,,,,,,,,,,,,,,,,,,,,,,,
1607646225.358343,68.000000,0.000000,4198.589844,4185.769043,4241.922852,4215.641113,4200.000000,4186.282227,4193.461426,4198.461426,4202.307617,4213.205078,4139.230957,4207.179688,4212.436035,4197.179688,3661.000000,4.000000,,,,0.000000,4.000000,4.000000,2.000000,4.000000,4.000000,4.000000,2.000000,4.000000,4.000000,4.000000,4.000000,4.000000,4.000000,4.000000,66.666664,17.000000,0.000000,0.596460,0.090759,-0.792480,0.089294,1.000992,-0.033692,-0.294438,-25.720608,-152.678726,-10.916305,,,,,,,,,,,,,,,,,,,,,,,,,,,,,,,,,,,,,,,,,,,,,,,,,,,,,,,,,,,,,,,,,,,,,,
1607646225.366139,69.000000,0.000000,4200.512695,4184.615234,4238.974121,4213.717773,4190.897461,4186.794922,4189.615234,4200.384766,4200.384766,4208.205078,4133.077148,4202.051270,4207.820313,4191.410156,3405.000000,4.000000,,,,0.000000,4.000000,4.000000,2.000000,4.000000,4.000000,4.000000,2.000000,4.000000,4.000000,4.000000,4.000000,4.000000,4.000000,4.000000,66.666664,,,,,,,,,,,,,,,,,,,,,,,,,,,,,,,,,,,,,,,,,,,,,,,,,,,,,,,,,,,,,,,,,,,,,,,,,,,,,,,,,,
1607646225.373935,70.000000,0.000000,4204.230957,4185.384766,4240.897461,4214.358887,4195.384766,4183.974121,4195.641113,4196.794922,4197.563965,4210.000000,4131.025879,4201.538574,4207.948730,4190.769043,1624.000000,4.000000,,,,0.000000,4.000000,4.000000,2.000000,4.000000,4.000000,4.000000,2.000000,4.000000,4.000000,4.000000,4.000000,4.000000,4.000000,4.000000,66.666664,,,,,,,,,,,,,,,,,,,,,,,,,,,,,,,,,,,,,,,,,,,,,,,,,,,,,,,,,,,,,,,,,,,,,,,,,,,,,,,,,,
1607646225.381831,71.000000,0.000000,4205.128418,4180.897461,4238.461426,4215.769043,4203.461426,4181.538574,4199.102539,4190.384766,4197.436035,4212.563965,4138.589844,4203.974121,4216.153809,4191.153809,3143.000000,4.000000,,,,0.000000,4.000000,4.000000,2.000000,4.000000,4.000000,4.000000,2.000000,4.000000,4.000000,4.000000,4.000000,4.000000,4.000000,4.000000,66.666664,,,,,,,,,,,,,,,,,,,,,,,,,,,,,,,,,,,,,,,,,,,,,,,,,,,,,,,,,,,,,,,,,,,,,,,,,,,,,,,,,,
1607646225.389627,72.000000,0.000000,4199.358887,4172.307617,4235.384766,4213.205078,4192.692383,4185.641113,4198.077148,4187.307617,4197.179688,4205.384766,4138.333496,4202.820313,4214.743652,4186.153809,3470.000000,4.000000,,,,0.000000,4.000000,4.000000,2.000000,4.000000,4.000000,4.000000,2.000000,4.000000,4.000000,4.000000,4.000000,4.000000,4.000000,4.000000,66.666664,18.000000,0.000000,0.596651,0.090332,-0.792419,0.088989,0.994644,-0.025391,-0.274907,-24.075686,-154.174103,-10.916305,,,,,,,,,,,,,,,,,,,,,,,,,,,,,,,,,,,,,,,,,,,,,,,,,,,,,,,,,,,,,,,,,,,,,,
1607646225.397323,73.000000,0.000000,4195.769043,4171.410156,4238.077148,4212.051270,4183.205078,4188.717773,4200.000000,4188.205078,4195.256348,4199.615234,4130.000000,4199.743652,4203.333496,4181.538574,3637.000000,4.000000,,,,0.000000,4.000000,4.000000,2.000000,4.000000,4.000000,4.000000,2.000000,4.000000,4.000000,4.000000,4.000000,4.000000,4.000000,4.000000,66.666664,,,,,,,,,,,,,,,,,,,,,,,,,,,,,,,,,,,,,,,,,,,,,,,,,,,,,,,,,,,,,,,,,,,,,,,,,,,,,,,,,,
1607646225.405120,74.000000,0.000000,4199.102539,4172.436035,4240.769043,4212.179688,4185.000000,4183.333496,4200.641113,4187.436035,4196.153809,4203.333496,4131.025879,4201.025879,4199.230957,4183.333496,3599.000000,4.000000,,,,0.000000,4.000000,4.000000,2.000000,4.000000,4.000000,4.000000,2.000000,4.000000,4.000000,4.000000,4.000000,4.000000,4.000000,4.000000,66.666664,,,,,,,,,,,,,0.912530,0.658587,0.555547,0.163841,0.217228,0.352788,0.534634,0.269573,0.254901,0.181159,0.195073,0.113534,0.045828,0.030633,0.034374,0.251429,0.279835,0.133795,0.055050,0.061065,0.375100,0.174162,0.248260,0.599650,0.500917,0.886168,0.524212,0.160132,0.167760,0.107487,0.063282,0.035157,0.022288,0.022204,0.040761,0.349622,0.344380,0.141876,0.075305,0.105937,0.596363,0.643234,0.391015,0.110472,0.172450,1.139280,0.499420,0.311544,0.208416,0.193997,0.553215,0.448975,0.378510,0.173741,0.133374,0.266803,0.382166,0.290529,0.123624,0.050625,1.511162,0.629784,0.411077,0.248119,0.253858,0.704204,0.601033,0.531873,0.138104,0.159171
1607646225.412916,75.000000,0.000000,4200.769043,4169.230957,4239.487305,4207.563965,4181.794922,4182.179688,4198.589844,4184.615234,4196.922852,4205.128418,4136.922852,4201.794922,4200.128418,4182.692383,3480.000000,4.000000,,,,0.000000,4.000000,4.000000,2.000000,4.000000,4.000000,4.000000,2.000000,4.000000,4.000000,4.000000,4.000000,4.000000,4.000000,4.000000,66.666664,,,,,,,,,,,,,,,,,,,,,,,,,,,,,,,,,,,,,,,,,,,,,,,,,,,,,,,,,,,,,,,,,,,,,,,,,,,,,,,,,,
1607646225.420712,76.000000,0.000000,4198.589844,4168.461426,4237.948730,4203.461426,4177.563965,4187.307617,4199.230957,4192.692383,4199.230957,4202.820313,4139.102539,4200.128418,4198.717773,4176.410156,3122.000000,4.000000,,,,0.000000,4.000000,4.000000,2.000000,4.000000,4.000000,4.000000,2.000000,4.000000,4.000000,4.000000,4.000000,4.000000,4.000000,4.000000,66.666664,19.000000,0.000000,0.596787,0.090088,-0.792358,0.088867,0.999039,-0.023926,-0.276371,-24.673838,-152.529190,-9.570458,,,,,,,,,,,,,,,,,,,,,,,,,,,,,,,,,,,,,,,,,,,,,,,,,,,,,,,,,,,,,,,,,,,,,,
1607646225.428509,77.000000,0.000000,4196.666504,4169.358887,4238.589844,4202.051270,4182.179688,4182.820313,4200.897461,4199.615234,4199.871582,4203.077148,4136.410156,4198.333496,4198.974121,4171.922852,2279.000000,4.000000,,,,0.000000,4.000000,4.000000,2.000000,4.000000,4.000000,4.000000,2.000000,4.000000,4.000000,4.000000,4.000000,4.000000,4.000000,4.000000,66.666664,,,,,,,,,,,,,,,,,,,,,,,,,,,,,,,,,,,,,,,,,,,,,,,,,,,,,,,,,,,,,,,,,,,,,,,,,,,,,,,,,,
1607646225.436305,78.000000,0.000000,4195.769043,4167.948730,4236.410156,4199.487305,4188.333496,4176.922852,4198.974121,4192.436035,4193.205078,4202.051270,4131.794922,4195.128418,4198.077148,4170.897461,3599.000000,4.000000,,,,0.000000,4.000000,4.000000,2.000000,4.000000,4.000000,4.000000,2.000000,4.000000,4.000000,4.000000,4.000000,4.000000,4.000000,4.000000,66.666664,,,,,,,,,,,,,,,,,,,,,,,,,,,,,,,,,,,,,,,,,,,,,,,,,,,,,,,,,,,,,,,,,,,,,,,,,,,,,,,,,,
1607646225.444101,79.000000,0.000000,4195.512695,4169.743652,4235.897461,4201.538574,4186.025879,4180.897461,4196.025879,4184.358887,4186.666504,4199.743652,4126.666504,4192.436035,4192.051270,4170.256348,3480.000000,4.000000,,,,0.000000,4.000000,4.000000,2.000000,4.000000,4.000000,4.000000,2.000000,4.000000,4.000000,4.000000,4.000000,4.000000,4.000000,4.000000,66.666664,,,,,,,,,,,,,,,,,,,,,,,,,,,,,,,,,,,,,,,,,,,,,,,,,,,,,,,,,,,,,,,,,,,,,,,,,,,,,,,,,,
1607646225.451998,80.000000,0.000000,4201.282227,4174.487305,4238.333496,4206.794922,4182.692383,4184.615234,4198.077148,4189.487305,4187.307617,4198.846191,4124.358887,4196.410156,4186.538574,4171.025879,3122.000000,4.000000,,,,0.000000,4.000000,4.000000,2.000000,4.000000,4.000000,4.000000,2.000000,4.000000,4.000000,4.000000,4.000000,4.000000,4.000000,4.000000,66.666664,20.000000,0.000000,0.596787,0.090149,-0.792358,0.088806,0.997086,-0.038087,-0.272953,-23.477531,-153.575958,-12.262150,,,,,,,,,,,,,,,,,,,,,,,,,,,,,,,,,,,,,,,,,,,,,,,,,,,,,,,,,,,,,,,,,,,,,,
1607646225.459794,81.000000,0.000000,4203.846191,4176.794922,4241.025879,4205.000000,4189.487305,4185.641113,4200.641113,4196.025879,4193.077148,4199.102539,4130.897461,4199.871582,4189.358887,4173.717773,2279.000000,4.000000,,,,0.000000,4.000000,4.000000,2.000000,4.000000,4.000000,4.000000,2.000000,4.000000,4.000000,4.000000,4.000000,4.000000,4.000000,4.000000,66.666664,,,,,,,,,,,,,,,,,,,,,,,,,,,,,,,,,,,,,,,,,,,,,,,,,,,,,,,,,,,,,,,,,,,,,,,,,,,,,,,,,,
1607646225.467591,82.000000,0.000000,4197.948730,4174.487305,4241.153809,4206.794922,4194.102539,4191.922852,4198.589844,4197.051270,4195.897461,4204.102539,4137.307617,4198.077148,4198.205078,4176.410156,3599.000000,4.000000,,,,0.000000,4.000000,4.000000,2.000000,4.000000,4.000000,4.000000,2.000000,4.000000,4.000000,4.000000,4.000000,4.000000,4.000000,4.000000,66.666664,,,,,,,,,,,,,,,,,,,,,,,,,,,,,,,,,,,,,,,,,,,,,,,,,,,,,,,,,,,,,,,,,,,,,,,,,,,,,,,,,,
1607646225.475387,83.000000,0.000000,4202.051270,4171.538574,4237.307617,4212.948730,4187.692383,4197.307617,4201.025879,4198.846191,4200.128418,4211.666504,4136.922852,4200.897461,4203.333496,4182.179688,3480.000000,4.000000,,,,0.000000,4.000000,4.000000,2.000000,4.000000,4.000000,4.000000,2.000000,4.000000,4.000000,4.000000,4.000000,4.000000,4.000000,4.000000,66.666664,,,,,,,,,,,,,,,,,,,,,,,,,,,,,,,,,,,,,,,,,,,,,,,,,,,,,,,,,,,,,,,,,,,,,,,,,,,,,,,,,,
1607646225.483184,84.000000,0.000000,4211.666504,4174.487305,4238.205078,4207.948730,4184.743652,4196.794922,4203.589844,4197.563965,4201.410156,4211.794922,4130.384766,4201.538574,4198.077148,4184.358887,3122.000000,4.000000,,,,0.000000,4.000000,4.000000,2.000000,4.000000,4.000000,4.000000,2.000000,4.000000,4.000000,4.000000,4.000000,4.000000,4.000000,4.000000,66.666664,21.000000,0.000000,0.596823,0.090149,-0.792358,0.088562,1.011246,-0.042481,-0.276371,-25.271992,-152.230103,-10.467689,,,,,,,,,,,,,,,,,,,,,,,,,,,,,,,,,,,,,,,,,,,,,,,,,,,,,,,,,,,,,,,,,,,,,,
1607646225.490980,85.000000,0.000000,4206.153809,4173.333496,4238.717773,4198.461426,4194.615234,4196.666504,4196.538574,4193.205078,4191.538574,4201.410156,4120.769043,4190.769043,4185.897461,4172.948730,2279.000000,4.000000,,,,0.000000,4.000000,4.000000,2.000000,4.000000,4.000000,4.000000,2.000000,4.000000,4.000000,4.000000,4.000000,4.000000,4.000000,4.000000,66.666664,,,,,,,,,,,,,,,,,,,,,,,,,,,,,,,,,,,,,,,,,,,,,,,,,,,,,,,,,,,,,,,,,,,,,,,,,,,,,,,,,,
1607646225.498777,86.000000,0.000000,4192.436035,4161.282227,4234.102539,4197.563965,4200.897461,4198.717773,4193.333496,4186.282227,4183.077148,4187.820313,4110.256348,4183.717773,4170.641113,4155.384766,3599.000000,4.000000,,,,0.000000,4.000000,4.000000,2.000000,4.000000,4.000000,4.000000,2.000000,4.000000,4.000000,4.000000,4.000000,4.000000,4.000000,4.000000,66.666664,,,,,,,,,,,,,,,,,,,,,,,,,,,,,,,,,,,,,,,,,,,,,,,,,,,,,,,,,,,,,,,,,,,,,,,,,,,,,,,,,,
1607646225.506573,87.000000,0.000000,4185.256348,4153.717773,4231.025879,4198.333496,4193.333496,4201.922852,4195.512695,4181.282227,4180.384766,4181.025879,4106.794922,4185.512695,4162.436035,4149.743652,3480.000000,4.000000,,,,0.000000,4.000000,4.000000,2.000000,4.000000,4.000000,4.000000,2.000000,4.000000,4.000000,4.000000,4.000000,4.000000,4.000000,4.000000,66.666664,,,,,,,,,,,,,,,,,,,,,,,,,,,,,,,,,,,,,,,,,,,,,,,,,,,,,,,,,,,,,,,,,,,,,,,,,,,,,,,,,,
1607646225.514370,88.000000,0.000000,4188.846191,4161.794922,4238.461426,4197.820313,4183.077148,4200.128418,4195.897461,4188.846191,4183.461426,4189.615234,4115.897461,4191.922852,4173.717773,4162.820313,3122.000000,4.000000,,,,0.000000,4.000000,4.000000,2.000000,4.000000,4.000000,4.000000,2.000000,4.000000,4.000000,4.000000,4.000000,4.000000,4.000000,4.000000,66.666664,22.000000,0.000000,0.596605,0.090698,-0.792419,0.088928,0.998062,-0.041505,-0.284184,-24.972916,-154.174103,-10.467689,,,,,,,,,,,,,,,,,,,,,,,,,,,,,,,,,,,,,,,,,,,,,,,,,,,,,,,,,,,,,,,,,,,,,,
1607646225.522166,89.000000,0.000000,4198.589844,4178.717773,4242.051270,4200.897461,4187.051270,4195.769043,4198.461426,4199.358887,4193.589844,4203.589844,4125.256348,4198.974121,4190.897461,4175.769043,2279.000000,4.000000,,,,0.000000,4.000000,4.000000,2.000000,4.000000,4.000000,4.000000,2.000000,4.000000,4.000000,4.000000,4.000000,4.000000,4.000000,4.000000,66.666664,,,,,,,,,,,,,,,,,,,,,,,,,,,,,,,,,,,,,,,,,,,,,,,,,,,,,,,,,,,,,,,,,,,,,,,,,,,,,,,,,,
1607646225.530062,90.000000,0.000000,4200.641113,4182.307617,4234.102539,4200.897461,4195.897461,4200.128418,4200.769043,4198.461426,4198.717773,4204.743652,4126.153809,4198.974121,4191.538574,4173.461426,3599.000000,4.000000,,,,0.000000,4.000000,4.000000,2.000000,4.000000,4.000000,4.000000,2.000000,4.000000,4.000000,4.000000,4.000000,4.000000,4.000000,4.000000,66.666664,,,,,,,,,,,,,0.740711,0.690158,0.443542,0.165844,0.205124,0.342682,0.619153,0.256882,0.237096,0.199120,0.171523,0.111600,0.042964,0.032666,0.034138,0.205876,0.264681,0.147429,0.054076,0.059865,0.383965,0.158416,0.286099,0.535322,0.454675,0.949749,0.433894,0.172239,0.188807,0.116226,0.060336,0.032825,0.024062,0.022886,0.039929,0.382899,0.327913,0.162167,0.090720,0.100246,0.589051,0.597481,0.368349,0.111966,0.156655,1.030503,0.598863,0.366756,0.213676,0.191734,0.579589,0.489237,0.420379,0.174370,0.130995,0.285632,0.428921,0.289398,0.122134,0.054934,1.366128,0.657438,0.415195,0.281837,0.253334,0.597921,0.644400,0.528287,0.139678,0.160214
1607646225.537859,91.000000,0.000000,4191.282227,4176.153809,4233.077148,4199.230957,4196.282227,4198.461426,4198.461426,4191.410156,4190.384766,4200.384766,4124.230957,4193.205078,4185.897461,4169.871582,3480.000000,4.000000,,,,0.000000,4.000000,4.000000,2.000000,4.000000,4.000000,4.000000,2.000000,4.000000,4.000000,4.000000,4.000000,4.000000,4.000000,4.000000,66.666664,,,,,,,,,,,,,,,,,,,,,,,,,,,,,,,,,,,,,,,,,,,,,,,,,,,,,,,,,,,,,,,,,,,,,,,,,,,,,,,,,,
1607646225.545655,92.000000,0.000000,4187.563965,4180.769043,4234.743652,4200.512695,4201.025879,4187.692383,4195.256348,4187.563965,4183.589844,4200.384766,4122.563965,4190.512695,4188.589844,4171.922852,3122.000000,4.000000,,,,0.000000,4.000000,4.000000,2.000000,4.000000,4.000000,4.000000,2.000000,4.000000,4.000000,4.000000,4.000000,4.000000,4.000000,4.000000,66.666664,23.000000,0.000000,0.596248,0.091614,-0.792542,0.089294,0.986831,-0.041016,-0.285161,-25.271992,-153.725494,-10.916305,,,,,,,,,,,,,,,,,,,,,,,,,,,,,,,,,,,,,,,,,,,,,,,,,,,,,,,,,,,,,,,,,,,,,,
1607646225.553451,93.000000,0.000000,4194.358887,4183.333496,4233.333496,4201.666504,4202.307617,4188.717773,4194.615234,4187.820313,4187.948730,4201.410156,4124.871582,4194.358887,4193.333496,4173.974121,2279.000000,4.000000,,,,0.000000,4.000000,4.000000,2.000000,4.000000,4.000000,4.000000,2.000000,4.000000,4.000000,4.000000,4.000000,4.000000,4.000000,4.000000,66.666664,,,,,,,,,,,,,,,,,,,,,,,,,,,,,,,,,,,,,,,,,,,,,,,,,,,,,,,,,,,,,,,,,,,,,,,,,,,,,,,,,,
1607646225.561248,94.000000,0.000000,4201.410156,4174.487305,4237.179688,4203.077148,4188.205078,4195.256348,4195.256348,4193.974121,4196.153809,4204.615234,4134.230957,4199.615234,4198.077148,4179.615234,3599.000000,4.000000,,,,0.000000,4.000000,4.000000,2.000000,4.000000,4.000000,4.000000,2.000000,4.000000,4.000000,4.000000,4.000000,4.000000,4.000000,4.000000,66.666664,,,,,,,,,,,,,,,,,,,,,,,,,,,,,,,,,,,,,,,,,,,,,,,,,,,,,,,,,,,,,,,,,,,,,,,,,,,,,,,,,,
1607646225.569044,95.000000,0.000000,4201.410156,4173.589844,4241.794922,4202.820313,4184.487305,4190.384766,4196.282227,4200.384766,4201.282227,4208.974121,4138.974121,4199.487305,4200.256348,4184.615234,3480.000000,4.000000,,,,0.000000,4.000000,4.000000,2.000000,4.000000,4.000000,4.000000,2.000000,4.000000,4.000000,4.000000,4.000000,4.000000,4.000000,4.000000,66.666664,,,,,,,,,,,,,,,,,,,,,,,,,,,,,,,,,,,,,,,,,,,,,,,,,,,,,,,,,,,,,,,,,,,,,,,,,,,,,,,,,,
1607646225.576840,96.000000,0.000000,4200.128418,4183.974121,4239.615234,4200.897461,4199.871582,4181.922852,4197.307617,4198.205078,4201.538574,4212.179688,4136.025879,4196.922852,4199.102539,4183.846191,3122.000000,4.000000,,,,0.000000,4.000000,4.000000,2.000000,4.000000,4.000000,4.000000,2.000000,4.000000,4.000000,4.000000,4.000000,4.000000,4.000000,4.000000,66.666664,24.000000,0.000000,0.595589,0.092712,-0.792847,0.089844,0.974624,-0.035645,-0.299809,-25.271992,-152.678726,-11.215381,,,,,,,,,,,,,,,,,,,,,,,,,,,,,,,,,,,,,,,,,,,,,,,,,,,,,,,,,,,,,,,,,,,,,,
1607646225.584636,97.000000,0.000000,4204.743652,4190.128418,4236.666504,4202.051270,4204.615234,4185.512695,4197.692383,4197.307617,4201.666504,4215.128418,4137.051270,4200.128418,4201.025879,4186.153809,2279.000000,4.000000,,,,0.000000,4.000000,4.000000,2.000000,4.000000,4.000000,4.000000,2.000000,4.000000,4.000000,4.000000,4.000000,4.000000,4.000000,4.000000,66.666664,,,,,,,,,,,,,,,,,,,,,,,,,,,,,,,,,,,,,,,,,,,,,,,,,,,,,,,,,,,,,,,,,,,,,,,,,,,,,,,,,,
1607646225.592433,98.000000,0.000000,4206.153809,4189.102539,4240.000000,4202.179688,4196.794922,4198.589844,4196.282227,4199.871582,4201.794922,4216.025879,4134.230957,4203.717773,4204.615234,4187.563965,3599.000000,4.000000,,,,0.000000,4.000000,4.000000,2.000000,4.000000,4.000000,4.000000,2.000000,4.000000,4.000000,4.000000,4.000000,4.000000,4.000000,4.000000,66.666664,,,,,,,,,,,,,,,,,,,,,,,,,,,,,,,,,,,,,,,,,,,,,,,,,,,,,,,,,,,,,,,,,,,,,,,,,,,,,,,,,,
1607646225.600329,99.000000,0.000000,4204.743652,4185.641113,4241.282227,4203.589844,4199.358887,4201.538574,4196.153809,4194.743652,4198.461426,4215.128418,4128.589844,4201.794922,4202.948730,4184.487305,3480.000000,4.000000,,,,0.000000,4.000000,4.000000,2.000000,4.000000,4.000000,4.000000,2.000000,4.000000,4.000000,4.000000,4.000000,4.000000,4.000000,4.000000,66.666664,,,,,,,,,,,,,,,,,,,,,,,,,,,,,,,,,,,,,,,,,,,,,,,,,,,,,,,,,,,,,,,,,,,,,,,,,,,,,,,,,,
1607646225.608125,100.000000,0.000000,4207.948730,4187.436035,4241.153809,4208.077148,4203.461426,4190.256348,4200.384766,4189.743652,4199.487305,4217.051270,4133.077148,4202.179688,4201.282227,4187.436035,3122.000000,4.000000,,,,0.000000,4.000000,4.000000,2.000000,4.000000,4.000000,4.000000,2.000000,4.000000,4.000000,4.000000,4.000000,4.000000,4.000000,4.000000,66.666664,25.000000,0.000000,0.595019,0.093628,-0.793091,0.090515,1.001480,-0.038575,-0.295415,-24.524300,-152.230103,-10.019073,,,,,,,,,,,,,,,,,,,,,,,,,,,,,,,,,,,,,,,,,,,,,,,,,,,,,,,,,,,,,,,,,,,,,,
1607646225.615922,101.000000,0.000000,4207.307617,4189.615234,4239.358887,4208.205078,4202.179688,4188.589844,4203.077148,4188.205078,4197.436035,4216.282227,4135.128418,4201.922852,4202.563965,4189.743652,2279.000000,4.000000,,,,0.000000,4.000000,4.000000,2.000000,4.000000,4.000000,4.000000,2.000000,4.000000,4.000000,4.000000,4.000000,4.000000,4.000000,4.000000,66.666664,,,,,,,,,,,,,,,,,,,,,,,,,,,,,,,,,,,,,,,,,,,,,,,,,,,,,,,,,,,,,,,,,,,,,,,,,,,,,,,,,,
1607646225.623718,102.000000,0.000000,4206.666504,4184.358887,4237.307617,4201.025879,4209.358887,4201.410156,4199.487305,4186.282227,4190.256348,4211.410156,4129.230957,4198.846191,4201.153809,4181.794922,3599.000000,4.000000,,,,0.000000,4.000000,4.000000,2.000000,4.000000,4.000000,4.000000,2.000000,4.000000,4.000000,4.000000,4.000000,4.000000,4.000000,4.000000,66.666664,,,,,,,,,,,,,,,,,,,,,,,,,,,,,,,,,,,,,,,,,,,,,,,,,,,,,,,,,,,,,,,,,,,,,,,,,,,,,,,,,,
1607646225.631514,103.000000,0.000000,4214.743652,4191.282227,4241.922852,4199.358887,4216.282227,4205.000000,4199.358887,4193.077148,4197.051270,4218.589844,4133.077148,4206.025879,4208.589844,4184.871582,3480.000000,4.000000,,,,0.000000,4.000000,4.000000,2.000000,4.000000,4.000000,4.000000,2.000000,4.000000,4.000000,4.000000,4.000000,4.000000,4.000000,4.000000,66.666664,,,,,,,,,,,,,,,,,,,,,,,,,,,,,,,,,,,,,,,,,,,,,,,,,,,,,,,,,,,,,,,,,,,,,,,,,,,,,,,,,,
1607646225.639310,104.000000,0.000000,4220.512695,4206.025879,4242.563965,4210.128418,4209.230957,4199.615234,4202.563965,4203.461426,4209.358887,4232.563965,4145.769043,4219.615234,4223.461426,4197.948730,3122.000000,4.000000,,,,0.000000,4.000000,4.000000,2.000000,4.000000,4.000000,4.000000,2.000000,4.000000,4.000000,4.000000,4.000000,4.000000,4.000000,4.000000,66.666664,26.000000,0.000000,0.594792,0.093506,-0.793213,0.091064,0.987320,-0.032227,-0.284672,-23.028915,-152.080566,-11.813535,,,,,,,,,,,,,,,,,,,,,,,,,,,,,,,,,,,,,,,,,,,,,,,,,,,,,,,,,,,,,,,,,,,,,,
1607646225.647107,105.000000,0.000000,4214.358887,4198.589844,4239.102539,4213.461426,4198.333496,4199.102539,4202.692383,4202.692383,4206.922852,4229.102539,4149.615234,4214.743652,4220.769043,4194.230957,2279.000000,4.000000,,,,0.000000,4.000000,4.000000,2.000000,4.000000,4.000000,4.000000,2.000000,4.000000,4.000000,4.000000,4.000000,4.000000,4.000000,4.000000,66.666664,,,,,,,,,,,,,,,,,,,,,,,,,,,,,,,,,,,,,,,,,,,,,,,,,,,,,,,,,,,,,,,,,,,,,,,,,,,,,,,,,,
1607646225.654903,106.000000,0.000000,4209.102539,4189.743652,4243.205078,4204.871582,4201.922852,4201.410156,4200.641113,4198.589844,4201.794922,4215.897461,4148.461426,4201.794922,4209.487305,4184.358887,3599.000000,4.000000,,,,0.000000,4.000000,4.000000,2.000000,4.000000,4.000000,4.000000,2.000000,4.000000,4.000000,4.000000,4.000000,4.000000,4.000000,4.000000,66.666664,,,,,,,,,,,,,0.551602,0.698383,0.352844,0.175657,0.191903,0.325259,0.685347,0.232639,0.225953,0.215312,0.156539,0.110150,0.037001,0.035634,0.035029,0.166085,0.241901,0.159834,0.055324,0.056800,0.388561,0.144701,0.318557,0.475924,0.392954,1.006477,0.333853,0.181891,0.207140,0.121697,0.059562,0.032421,0.024888,0.023086,0.039873,0.447057,0.327418,0.188594,0.101699,0.094132,0.600764,0.539624,0.324490,0.114552,0.138963,1.024502,0.680086,0.433141,0.216163,0.184723,0.636127,0.522685,0.440124,0.164558,0.124438,0.293382,0.451872,0.262399,0.109637,0.058454,1.320966,0.670987,0.408692,0.308358,0.242524,0.531787,0.668797,0.498146,0.141347,0.152106
1607646225.662799,107.000000,0.000000,4212.307617,4197.563965,4250.000000,4200.512695,4217.051270,4201.153809,4200.000000,4202.436035,4204.743652,4217.179688,4152.307617,4206.410156,4213.461426,4190.897461,3480.000000,4.000000,,,,0.000000,4.000000,4.000000,2.000000,4.000000,4.000000,4.000000,2.000000,4.000000,4.000000,4.000000,4.000000,4.000000,4.000000,4.000000,66.666664,,,,,,,,,,,,,,,,,,,,,,,,,,,,,,,,,,,,,,,,,,,,,,,,,,,,,,,,,,,,,,,,,,,,,,,,,,,,,,,,,,
1607646225.670596,108.000000,0.000000,4217.692383,4196.794922,4246.538574,4203.077148,4219.615234,4199.871582,4201.153809,4204.487305,4206.538574,4225.897461,4156.025879,4213.077148,4215.384766,4200.000000,3122.000000,4.000000,,,,0.000000,4.000000,4.000000,2.000000,4.000000,4.000000,4.000000,2.000000,4.000000,4.000000,4.000000,4.000000,4.000000,4.000000,4.000000,66.666664,27.000000,0.000000,0.594774,0.093323,-0.793213,0.091370,0.999039,-0.031739,-0.297368,-24.524300,-151.482407,-10.467689,,,,,,,,,,,,,,,,,,,,,,,,,,,,,,,,,,,,,,,,,,,,,,,,,,,,,,,,,,,,,,,,,,,,,,
1607646225.678392,109.000000,0.000000,4215.384766,4185.769043,4240.512695,4200.769043,4205.000000,4200.897461,4201.410156,4202.307617,4204.358887,4223.846191,4155.128418,4206.025879,4203.717773,4195.000000,2279.000000,4.000000,,,,0.000000,4.000000,4.000000,2.000000,4.000000,4.000000,4.000000,2.000000,4.000000,4.000000,4.000000,4.000000,4.000000,4.000000,4.000000,66.666664,,,,,,,,,,,,,,,,,,,,,,,,,,,,,,,,,,,,,,,,,,,,,,,,,,,,,,,,,,,,,,,,,,,,,,,,,,,,,,,,,,
1607646225.686189,110.000000,0.000000,4205.000000,4185.256348,4239.230957,4197.051270,4195.256348,4203.077148,4201.025879,4201.153809,4202.692383,4216.282227,4153.333496,4201.282227,4201.025879,4187.692383,3599.000000,4.000000,,,,0.000000,4.000000,4.000000,2.000000,4.000000,4.000000,4.000000,2.000000,4.000000,4.000000,4.000000,4.000000,4.000000,4.000000,4.000000,66.666664,,,,,,,,,,,,,,,,,,,,,,,,,,,,,,,,,,,,,,,,,,,,,,,,,,,,,,,,,,,,,,,,,,,,,,,,,,,,,,,,,,
1607646225.693986,111.000000,0.000000,4198.333496,4185.769043,4237.307617,4199.487305,4200.512695,4204.487305,4200.384766,4197.820313,4201.666504,4211.410156,4153.974121,4202.051270,4198.077148,4184.358887,3480.000000,4.000000,,,,0.000000,4.000000,4.000000,2.000000,4.000000,4.000000,4.000000,2.000000,4.000000,4.000000,4.000000,4.000000,4.000000,4.000000,4.000000,66.666664,,,,,,,,,,,,,,,,,,,,,,,,,,,,,,,,,,,,,,,,,,,,,,,,,,,,,,,,,,,,,,,,,,,,,,,,,,,,,,,,,,
1607646225.701782,112.000000,0.000000,4198.205078,4182.051270,4238.717773,4199.230957,4199.487305,4205.000000,4200.256348,4196.153809,4203.333496,4211.538574,4153.717773,4200.256348,4185.897461,4182.820313,3122.000000,4.000000,,,,0.000000,4.000000,4.000000,2.000000,4.000000,4.000000,4.000000,2.000000,4.000000,4.000000,4.000000,4.000000,4.000000,4.000000,4.000000,66.666664,28.000000,0.000000,0.594745,0.093384,-0.793213,0.091492,0.995621,-0.050294,-0.291020,-24.374762,-152.828262,-10.617228,,,,,,,,,,,,,,,,,,,,,,,,,,,,,,,,,,,,,,,,,,,,,,,,,,,,,,,,,,,,,,,,,,,,,,
1607646225.709579,113.000000,0.000000,4201.282227,4188.846191,4237.948730,4199.358887,4200.256348,4202.563965,4201.538574,4200.384766,4209.487305,4215.512695,4156.410156,4201.666504,4190.256348,4187.179688,2279.000000,4.000000,,,,0.000000,4.000000,4.000000,2.000000,4.000000,4.000000,4.000000,2.000000,4.000000,4.000000,4.000000,4.000000,4.000000,4.000000,4.000000,66.666664,,,,,,,,,,,,,,,,,,,,,,,,,,,,,,,,,,,,,,,,,,,,,,,,,,,,,,,,,,,,,,,,,,,,,,,,,,,,,,,,,,
1607646225.717375,114.000000,0.000000,4202.948730,4197.820313,4231.922852,4201.794922,4214.230957,4202.436035,4201.282227,4202.820313,4213.461426,4217.436035,4159.487305,4203.974121,4203.589844,4193.461426,3599.000000,4.000000,,,,0.000000,4.000000,4.000000,2.000000,4.000000,4.000000,4.000000,2.000000,4.000000,4.000000,4.000000,4.000000,4.000000,4.000000,4.000000,66.666664,,,,,,,,,,,,,,,,,,,,,,,,,,,,,,,,,,,,,,,,,,,,,,,,,,,,,,,,,,,,,,,,,,,,,,,,,,,,,,,,,,
1607646225.725172,115.000000,0.000000,4200.897461,4190.641113,4233.077148,4202.051270,4212.820313,4208.974121,4200.000000,4200.641113,4213.205078,4214.743652,4155.769043,4202.692383,4200.000000,4193.077148,3480.000000,4.000000,,,,0.000000,4.000000,4.000000,2.000000,4.000000,4.000000,4.000000,2.000000,4.000000,4.000000,4.000000,4.000000,4.000000,4.000000,4.000000,66.666664,,,,,,,,,,,,,,,,,,,,,,,,,,,,,,,,,,,,,,,,,,,,,,,,,,,,,,,,,,,,,,,,,,,,,,,,,,,,,,,,,,
1607646225.732968,116.000000,0.000000,4199.871582,4180.897461,4242.179688,4201.282227,4197.563965,4216.153809,4202.179688,4202.692383,4216.666504,4213.974121,4152.948730,4208.333496,4196.922852,4192.563965,3122.000000,4.000000,,,,0.000000,4.000000,4.000000,2.000000,4.000000,4.000000,4.000000,2.000000,4.000000,4.000000,4.000000,4.000000,4.000000,4.000000,4.000000,66.666664,29.000000,0.000000,0.595031,0.092957,-0.793091,0.091125,0.991714,-0.054200,-0.287602,-22.131685,-152.230103,-11.215381,,,,,,,,,,,,,,,,,,,,,,,,,,,,,,,,,,,,,,,,,,,,,,,,,,,,,,,,,,,,,,,,,,,,,,
1607646225.740865,117.000000,0.000000,4204.615234,4191.025879,4242.692383,4200.512695,4198.974121,4216.666504,4202.948730,4206.025879,4220.256348,4217.820313,4156.153809,4217.692383,4206.282227,4200.256348,2279.000000,4.000000,,,,0.000000,4.000000,4.000000,2.000000,4.000000,4.000000,4.000000,2.000000,4.000000,4.000000,4.000000,4.000000,4.000000,4.000000,4.000000,66.666664,,,,,,,,,,,,,,,,,,,,,,,,,,,,,,,,,,,,,,,,,,,,,,,,,,,,,,,,,,,,,,,,,,,,,,,,,,,,,,,,,,
1607646225.748661,118.000000,0.000000,4206.922852,4203.333496,4238.077148,4202.436035,4214.230957,4213.717773,4202.820313,4203.717773,4216.666504,4217.436035,4155.256348,4213.077148,4202.051270,4199.871582,3599.000000,4.000000,,,,0.000000,4.000000,4.000000,2.000000,4.000000,4.000000,4.000000,2.000000,4.000000,4.000000,4.000000,4.000000,4.000000,4.000000,4.000000,66.666664,,,,,,,,,,,,,,,,,,,,,,,,,,,,,,,,,,,,,,,,,,,,,,,,,,,,,,,,,,,,,,,,,,,,,,,,,,,,,,,,,,
1607646225.756458,119.000000,0.000000,4202.563965,4200.769043,4238.333496,4207.948730,4220.641113,4214.487305,4204.358887,4201.922852,4214.743652,4209.743652,4146.538574,4203.846191,4187.307617,4187.436035,3480.000000,4.000000,,,,0.000000,4.000000,4.000000,2.000000,4.000000,4.000000,4.000000,2.000000,4.000000,4.000000,4.000000,4.000000,4.000000,4.000000,4.000000,66.666664,,,,,,,,,,,,,,,,,,,,,,,,,,,,,,,,,,,,,,,,,,,,,,,,,,,,,,,,,,,,,,,,,,,,,,,,,,,,,,,,,,
1607646225.764254,120.000000,0.000000,4200.000000,4198.846191,4242.563965,4212.948730,4214.743652,4215.128418,4203.461426,4203.077148,4214.487305,4204.615234,4140.512695,4210.000000,4181.538574,4184.230957,3122.000000,4.000000,,,,0.000000,4.000000,4.000000,2.000000,4.000000,4.000000,4.000000,2.000000,4.000000,4.000000,4.000000,4.000000,4.000000,4.000000,4.000000,66.666664,30.000000,0.000000,0.595188,0.092712,-0.793030,0.090881,0.998550,-0.031739,-0.283207,-23.926146,-152.529190,-10.617228,,,,,,,,,,,,,,,,,,,,,,,,,,,,,,,,,,,,,,,,,,,,,,,,,,,,,,,,,,,,,,,,,,,,,,
1607646225.772051,121.000000,0.000000,4199.358887,4201.282227,4243.333496,4213.461426,4216.410156,4213.077148,4202.436035,4203.077148,4208.333496,4203.589844,4138.974121,4216.922852,4177.179688,4187.179688,2279.000000,4.000000,,,,0.000000,4.000000,4.000000,2.000000,4.000000,4.000000,4.000000,2.000000,4.000000,4.000000,4.000000,4.000000,4.000000,4.000000,4.000000,66.666664,,,,,,,,,,,,,,,,,,,,,,,,,,,,,,,,,,,,,,,,,,,,,,,,,,,,,,,,,,,,,,,,,,,,,,,,,,,,,,,,,,
1607646225.779847,122.000000,0.000000,4198.333496,4198.205078,4241.538574,4210.512695,4228.461426,4213.461426,4203.846191,4201.666504,4201.538574,4199.487305,4136.153809,4209.487305,4169.615234,4179.358887,3599.000000,4.000000,,,,0.000000,4.000000,4.000000,2.000000,4.000000,4.000000,4.000000,2.000000,4.000000,4.000000,4.000000,4.000000,4.000000,4.000000,4.000000,66.666664,,,,,,,,,,,,,0.387211,0.678285,0.296169,0.195875,0.181417,0.301237,0.707841,0.207231,0.220239,0.221412,0.142797,0.108146,0.030204,0.038857,0.036828,0.136979,0.215440,0.168645,0.059145,0.053242,0.408034,0.136836,0.336499,0.428122,0.328705,1.040189,0.254145,0.184533,0.217094,0.121407,0.062889,0.035203,0.024756,0.023688,0.040297,0.538236,0.343731,0.210441,0.109583,0.086969,0.637568,0.488853,0.268957,0.122312,0.121660,1.084879,0.720673,0.489413,0.218788,0.173362,0.687768,0.523134,0.426101,0.156129,0.115066,0.288964,0.445348,0.221273,0.093759,0.060692,1.355420,0.661709,0.384514,0.330467,0.223382,0.520463,0.666192,0.454591,0.148914,0.136898
1607646225.787644,123.000000,0.000000,4200.384766,4194.615234,4242.820313,4211.538574,4226.922852,4212.051270,4204.230957,4200.384766,4200.256348,4196.922852,4136.666504,4207.563965,4169.487305,4170.384766,3480.000000,4.000000,,,,0.000000,4.000000,4.000000,2.000000,4.000000,4.000000,4.000000,2.000000,4.000000,4.000000,4.000000,4.000000,4.000000,4.000000,4.000000,66.666664,,,,,,,,,,,,,,,,,,,,,,,,,,,,,,,,,,,,,,,,,,,,,,,,,,,,,,,,,,,,,,,,,,,,,,,,,,,,,,,,,,
1607646225.795440,124.000000,0.000000,4202.307617,4191.538574,4246.282227,4217.179688,4209.871582,4204.743652,4202.820313,4199.615234,4201.538574,4195.769043,4136.922852,4214.487305,4168.461426,4172.179688,3122.000000,4.000000,,,,0.000000,4.000000,4.000000,2.000000,4.000000,4.000000,4.000000,2.000000,4.000000,4.000000,4.000000,4.000000,4.000000,4.000000,4.000000,66.666664,31.000000,0.000000,0.595318,0.092590,-0.793030,0.090149,0.988785,-0.051270,-0.285161,-22.281223,-154.024567,-10.617228,,,,,,,,,,,,,,,,,,,,,,,,,,,,,,,,,,,,,,,,,,,,,,,,,,,,,,,,,,,,,,,,,,,,,,
1607646225.803237,125.000000,0.000000,4203.333496,4185.000000,4241.922852,4213.333496,4207.563965,4198.974121,4202.051270,4196.666504,4197.307617,4189.487305,4131.282227,4207.307617,4160.641113,4170.769043,2279.000000,4.000000,,,,0.000000,4.000000,4.000000,2.000000,4.000000,4.000000,4.000000,2.000000,4.000000,4.000000,4.000000,4.000000,4.000000,4.000000,4.000000,66.666664,,,,,,,,,,,,,,,,,,,,,,,,,,,,,,,,,,,,,,,,,,,,,,,,,,,,,,,,,,,,,,,,,,,,,,,,,,,,,,,,,,
1607646225.811033,126.000000,0.000000,4209.487305,4189.871582,4238.461426,4206.153809,4212.307617,4199.487305,4200.512695,4193.333496,4192.436035,4188.717773,4130.897461,4200.512695,4159.743652,4168.589844,3599.000000,4.000000,,,,0.000000,4.000000,4.000000,2.000000,4.000000,4.000000,4.000000,2.000000,4.000000,4.000000,4.000000,4.000000,4.000000,4.000000,4.000000,66.666664,,,,,,,,,,,,,,,,,,,,,,,,,,,,,,,,,,,,,,,,,,,,,,,,,,,,,,,,,,,,,,,,,,,,,,,,,,,,,,,,,,
1607646225.818929,127.000000,0.000000,4213.974121,4203.717773,4243.589844,4211.025879,4212.692383,4203.717773,4201.025879,4197.436035,4198.333496,4200.897461,4139.487305,4209.615234,4168.589844,4179.358887,58.000000,4.000000,,,,0.000000,4.000000,4.000000,2.000000,4.000000,4.000000,4.000000,2.000000,4.000000,4.000000,4.000000,4.000000,4.000000,4.000000,4.000000,66.666664,,,,,,,,,,,,,,,,,,,,,,,,,,,,,,,,,,,,,,,,,,,,,,,,,,,,,,,,,,,,,,,,,,,,,,,,,,,,,,,,,,
1607646225.826726,0.000000,0.000000,4206.794922,4201.153809,4243.077148,4218.333496,4218.974121,4202.563965,4202.563965,4201.025879,4205.384766,4205.000000,4140.000000,4212.179688,4172.563965,4186.410156,1228.000000,4.000000,,,,0.000000,4.000000,4.000000,2.000000,4.000000,4.000000,4.000000,2.000000,4.000000,4.000000,4.000000,4.000000,4.000000,4.000000,4.000000,66.666664,0.000000,0.000000,0.595664,0.092590,-0.792908,0.088928,0.989273,-0.024903,-0.269047,-23.028915,-153.276871,-11.364920,,,,,,,,,,,,,,,,,,,,,,,,,,,,,,,,,,,,,,,,,,,,,,,,,,,,,,,,,,,,,,,,,,,,,,
1607646225.834522,1.000000,0.000000,4192.051270,4188.205078,4235.128418,4213.589844,4215.000000,4192.820313,4199.358887,4193.974121,4196.410156,4190.256348,4129.358887,4202.179688,4165.128418,4174.615234,2297.000000,4.000000,,,,0.000000,4.000000,4.000000,2.000000,4.000000,4.000000,4.000000,2.000000,4.000000,4.000000,4.000000,4.000000,4.000000,4.000000,4.000000,66.666664,,,,,,,,,,,,,,,,,,,,,,,,,,,,,,,,,,,,,,,,,,,,,,,,,,,,,,,,,,,,,,,,,,,,,,,,,,,,,,,,,,
1607646225.842318,2.000000,0.000000,4189.102539,4185.641113,4233.589844,4205.769043,4198.846191,4188.205078,4197.179688,4187.179688,4184.743652,4182.820313,4123.846191,4198.333496,4156.410156,4165.256348,3239.000000,4.000000,,,,0.000000,4.000000,4.000000,2.000000,4.000000,4.000000,4.000000,2.000000,4.000000,4.000000,4.000000,4.000000,4.000000,4.000000,4.000000,66.666664,,,,,,,,,,,,,,,,,,,,,,,,,,,,,,,,,,,,,,,,,,,,,,,,,,,,,,,,,,,,,,,,,,,,,,,,,,,,,,,,,,
1607646225.850115,3.000000,0.000000,4194.487305,4186.025879,4238.461426,4203.589844,4198.077148,4189.743652,4200.897461,4188.205078,4185.512695,4186.794922,4126.025879,4200.641113,4153.205078,4168.333496,3512.000000,4.000000,,,,0.000000,4.000000,4.000000,2.000000,4.000000,4.000000,4.000000,2.000000,4.000000,4.000000,4.000000,4.000000,4.000000,4.000000,4.000000,66.666664,,,,,,,,,,,,,,,,,,,,,,,,,,,,,,,,,,,,,,,,,,,,,,,,,,,,,,,,,,,,,,,,,,,,,,,,,,,,,,,,,,
